# XDI/1.0 Athena/0.9.26
# Element.edge:                  K
# Element.symbol:                P
# Column.1:                      energy eV
# Column.2:                      norm
# Column.3:                      nbkg
# Column.4:                      flat
# Column.5:                      fbkg
# Column.6:                      nder
# Column.7:                      nsec
# Athena.e0:                     2154
# Athena.eshift:                 0
# Athena.rbkg:                   1.0
# Athena.importance:             1
# Athena.standard:               None
# Athena.bkg_kweight:            2
# Athena.edge_step:              0.2401249
# Athena.fixed_step:             no
# Athena.pre_edge_range:         -25.4 -7
# Athena.pre_edge_line:          -0.434514 + 0.0002371 * E
# Athena.normalization_range:    28 65
# Athena.post_edge_polynomial:   -1.279968 + 0.000741083 * E + 0 * E^2 + 0 * E^3
# Athena.spline_range_energy:    0.000 85.601
# Athena.clamps:                 0 24
# Athena.spline_range_k:         0.000 4.740
# Athena.kweight:                2
# Athena.window:                 hanning
# Athena.phase_correction:       no
# Athena.k_range:                2.740 3.000
# Athena.dk:                     1
# Athena.r_range:                1 3
# Athena.dr:                     0.0
# Athena.window:                 hanning
# Athena.plot_multiplier:        1
# Athena.y_offset:               0
# ///
#------------------------
#   e         norm        nbkg        flat        fbkg        nder        nsec
  2125.4900       0.38133984E-01   0.38133979E-01   0.38133979E-01   0.38133979E-01  -0.88826705E-02   0.22941189E-02
  2127.4900       0.20368643E-01   0.20368640E-01   0.20368640E-01   0.20368640E-01  -0.42944327E-02   0.18638219E-02
  2129.4900       0.20956253E-01   0.20956250E-01   0.20956250E-01   0.20956250E-01  -0.14273828E-02   0.46559109E-03
  2131.4900       0.14659111E-01   0.14659110E-01   0.14659110E-01   0.14659110E-01  -0.24320684E-02  -0.10947429E-02
  2133.4900       0.11227979E-01   0.11227978E-01   0.11227978E-01   0.11227978E-01  -0.58063544E-02  -0.15609066E-03
  2135.4900      -0.85663063E-02  -0.85663053E-02  -0.85663053E-02  -0.85663053E-02  -0.30564310E-02   0.18555450E-02
  2137.4900      -0.99774513E-03  -0.99774502E-03  -0.99774502E-03  -0.99774502E-03   0.16158255E-02   0.64920215E-03
  2139.4900      -0.21030043E-02  -0.21030041E-02  -0.21030041E-02  -0.21030041E-02  -0.45962243E-03  -0.57736374E-03
  2140.4900      -0.23766124E-02  -0.23766121E-02  -0.23766121E-02  -0.23766121E-02  -0.11626572E-03   0.26712490E-01
  2140.5900      -0.22308966E-02  -0.22308964E-02  -0.22308964E-02  -0.22308964E-02   0.28924117E-01   0.46118050E-01
  2140.6900       0.34082110E-02   0.34082106E-02   0.34082106E-02   0.34082106E-02   0.91073443E-02  -0.28701733
  2140.7900      -0.40942775E-03  -0.40942770E-03  -0.40942770E-03  -0.40942770E-03  -0.28479349E-01  -0.32004182E-01
  2140.8900      -0.22876589E-02  -0.22876586E-02  -0.22876586E-02  -0.22876586E-02   0.27065080E-02   0.25603345
  2140.9900       0.13187385E-03   0.13187384E-03   0.13187384E-03   0.13187384E-03   0.22727341E-01   0.26902669E-01
  2141.0900       0.22578094E-02   0.22578091E-02   0.22578091E-02   0.22578091E-02   0.80870419E-02  -0.18145767
  2141.1900       0.17492822E-02   0.17492820E-02   0.17492820E-02   0.17492820E-02  -0.13564193E-01  -0.89120297E-01
  2141.2900      -0.45502926E-03  -0.45502920E-03  -0.45502920E-03  -0.45502920E-03  -0.97370176E-02   0.92597655E-01
  2141.3900      -0.19812130E-03  -0.19812128E-03  -0.19812128E-03  -0.19812128E-03   0.49553380E-02   0.28859984E-01
  2141.4900       0.53603834E-03   0.53603827E-03   0.53603827E-03   0.53603827E-03  -0.39650208E-02  -0.99489902E-01
  2141.5900      -0.99112546E-03  -0.99112535E-03  -0.99112535E-03  -0.99112535E-03  -0.14942642E-01  -0.14471637E-01
  2141.6900      -0.24524902E-02  -0.24524899E-02  -0.24524899E-02  -0.24524899E-02  -0.68593482E-02   0.10395633
  2141.7900      -0.23629951E-02  -0.23629948E-02  -0.23629948E-02  -0.23629948E-02   0.58486232E-02   0.34752752E-01
  2141.8900      -0.12827655E-02  -0.12827654E-02  -0.12827654E-02  -0.12827654E-02   0.91202088E-04  -0.27350353E-01
  2141.9900      -0.23447547E-02  -0.23447544E-02  -0.23447544E-02  -0.23447544E-02   0.37855258E-03  -0.37813659E-01
  2142.0900      -0.12070550E-02  -0.12070549E-02  -0.12070549E-02  -0.12070549E-02  -0.74715297E-02  -0.42051038E-01
  2142.1900      -0.38390606E-02  -0.38390602E-02  -0.38390602E-02  -0.38390602E-02  -0.80316549E-02   0.10454977
  2142.2900      -0.28133860E-02  -0.28133857E-02  -0.28133857E-02  -0.28133857E-02   0.13438424E-01  -0.40489350E-01
  2142.3900      -0.11513758E-02  -0.11513756E-02  -0.11513757E-02  -0.11513756E-02  -0.16129525E-01  -0.16446651
  2142.4900      -0.60392910E-02  -0.60392903E-02  -0.60392903E-02  -0.60392903E-02  -0.19454878E-01   0.64862086E-01
  2142.5900      -0.50423514E-02  -0.50423508E-02  -0.50423508E-02  -0.50423508E-02  -0.31571078E-02   0.19927132E-01
  2142.6900      -0.66707126E-02  -0.66707118E-02  -0.66707118E-02  -0.66707118E-02  -0.15469452E-01  -0.66590353E-01
  2142.7900      -0.81362418E-02  -0.81362408E-02  -0.81362408E-02  -0.81362408E-02  -0.16475178E-01   0.36137448E-01
  2142.8900      -0.99657482E-02  -0.99657471E-02  -0.99657471E-02  -0.99657471E-02  -0.82419622E-02   0.35897989E-01
  2142.9900      -0.97846342E-02  -0.97846330E-02  -0.97846330E-02  -0.97846330E-02  -0.92955806E-02   0.90515405E-01
  2143.0900      -0.11824864E-01  -0.11824863E-01  -0.11824863E-01  -0.11824863E-01   0.98611188E-02   0.79729350E-01
  2143.1900      -0.78124104E-02  -0.78124095E-02  -0.78124095E-02  -0.78124095E-02   0.66502894E-02  -0.98396721E-01
  2143.2900      -0.10494806E-01  -0.10494805E-01  -0.10494805E-01  -0.10494805E-01  -0.98182254E-02  -0.23914641E-01
  2143.3900      -0.97760555E-02  -0.97760543E-02  -0.97760543E-02  -0.97760543E-02   0.18673613E-02   0.52191595E-01
  2143.4900      -0.10121334E-01  -0.10121333E-01  -0.10121333E-01  -0.10121333E-01   0.62009357E-03  -0.11212916E-01
  2143.5900      -0.96520368E-02  -0.96520356E-02  -0.96520356E-02  -0.96520356E-02  -0.37522190E-03   0.32628857E-01
  2143.6900      -0.10196379E-01  -0.10196377E-01  -0.10196377E-01  -0.10196377E-01   0.71458649E-02  -0.40645519E-01
  2143.7900      -0.82228638E-02  -0.82228628E-02  -0.82228628E-02  -0.82228628E-02  -0.85043257E-02  -0.67985461E-02
  2143.8900      -0.11897244E-01  -0.11897242E-01  -0.11897242E-01  -0.11897242E-01   0.57861557E-02   0.38604914E-01
  2143.9900      -0.70656327E-02  -0.70656318E-02  -0.70656318E-02  -0.70656318E-02  -0.78334289E-03  -0.47215017E-01
  2144.0900      -0.12053912E-01  -0.12053911E-01  -0.12053911E-01  -0.12053911E-01  -0.36568478E-02   0.96855856E-01
  2144.1900      -0.77970022E-02  -0.77970013E-02  -0.77970013E-02  -0.77970013E-02   0.18587828E-01   0.38615325E-01
  2144.2900      -0.83363467E-02  -0.83363457E-02  -0.83363457E-02  -0.83363457E-02   0.40662172E-02   0.46017724E-02
  2144.3900      -0.69837588E-02  -0.69837580E-02  -0.69837580E-02  -0.69837580E-02   0.19508183E-01  -0.11972937E-02
  2144.4900      -0.44347101E-02  -0.44347096E-02  -0.44347096E-02  -0.44347096E-02   0.38267585E-02  -0.52618456E-01
  2144.5900      -0.62184071E-02  -0.62184064E-02  -0.62184064E-02  -0.62184064E-02   0.89844916E-02   0.14981788
  2144.6900      -0.26378118E-02  -0.26378115E-02  -0.26378115E-02  -0.26378115E-02   0.33790335E-01  -0.35887578E-01
  2144.7900       0.53965993E-03   0.53965987E-03   0.53965987E-03   0.53965987E-03   0.18069760E-02  -0.14533063
  2144.8900      -0.22764166E-02  -0.22764163E-02  -0.22764163E-02  -0.22764163E-02   0.47242082E-02   0.12568461
  2144.9900       0.14845016E-02   0.14845014E-02   0.14845014E-02   0.14845014E-02   0.26943897E-01   0.89151531E-01
  2145.0900       0.31123629E-02   0.31123625E-02   0.31123625E-02   0.31123625E-02   0.22554514E-01  -0.15398238E-01
  2145.1900       0.59954045E-02   0.59954038E-02   0.59954038E-02   0.59954038E-02   0.23864250E-01  -0.16662164
  2145.2900       0.78852128E-02   0.78852119E-02   0.78852119E-02   0.78852119E-02  -0.10769814E-01  -0.19818855
  2145.3900       0.38414417E-02   0.38414413E-02   0.38414413E-02   0.38414413E-02  -0.15773460E-01   0.17492982
  2145.4900       0.47305208E-02   0.47305202E-02   0.47305202E-02   0.47305202E-02   0.24216150E-01   0.88381099E-01
  2145.5900       0.86846717E-02   0.86846707E-02   0.86846707E-02   0.86846707E-02   0.19027595E-02  -0.69130698E-01
  2145.6900       0.51110727E-02   0.51110721E-02   0.51110721E-02   0.51110721E-02   0.10390010E-01   0.38209286E-02
  2145.7900       0.10762674E-01   0.10762673E-01   0.10762673E-01   0.10762673E-01   0.26669453E-02  -0.21266019
  2145.8900       0.56444617E-02   0.56444611E-02   0.56444611E-02   0.56444611E-02  -0.32142027E-01   0.36481019E-01
  2145.9900       0.43342684E-02   0.43342679E-02   0.43342679E-02   0.43342679E-02   0.99631491E-02   0.24864147
  2146.0900       0.76370916E-02   0.76370907E-02   0.76370907E-02   0.76370907E-02   0.17586266E-01   0.16876636E-01
  2146.1900       0.78515216E-02   0.78515207E-02   0.78515207E-02   0.78515207E-02   0.13338476E-01  -0.35346193E-01
  2146.2900       0.10304787E-01   0.10304786E-01   0.10304786E-01   0.10304786E-01   0.10517028E-01  -0.63321221E-01
  2146.3900       0.99549271E-02   0.99549259E-02   0.99549259E-02   0.99549259E-02   0.67423207E-03  -0.29547127E-01
  2146.4900       0.10439633E-01   0.10439632E-01   0.10439632E-01   0.10439632E-01   0.46076022E-02   0.49495081E-01
  2146.5900       0.10876448E-01   0.10876446E-01   0.10876446E-01   0.10876446E-01   0.10573248E-01   0.65799098E-01
  2146.6900       0.12554283E-01   0.12554281E-01   0.12554281E-01   0.12554281E-01   0.17767422E-01   0.20926612E-01
  2146.7900       0.14429932E-01   0.14429930E-01   0.14429930E-01   0.14429930E-01   0.14758571E-01  -0.77001603E-01
  2146.8900       0.15505997E-01   0.15505995E-01   0.15505995E-01   0.15505995E-01   0.23671013E-02  -0.31441974E-02
  2146.9900       0.14903352E-01   0.14903350E-01   0.14903350E-01   0.14903350E-01   0.14129731E-01   0.16907870
  2147.0900       0.18331943E-01   0.18331941E-01   0.18331941E-01   0.18331941E-01   0.36182840E-01  -0.43425323E-01
  2147.1900       0.22139920E-01   0.22139918E-01   0.22139918E-01   0.22139918E-01   0.54446667E-02  -0.19461749
  2147.2900       0.19420877E-01   0.19420874E-01   0.19420874E-01   0.19420874E-01  -0.27406578E-02   0.14802715
  2147.3900       0.21591789E-01   0.21591786E-01   0.21591786E-01   0.21591786E-01   0.35050096E-01   0.16794387
  2147.4900       0.26430896E-01   0.26430893E-01   0.26430893E-01   0.26430893E-01   0.30848116E-01  -0.10638215
  2147.5900       0.27761412E-01   0.27761409E-01   0.27761409E-01   0.27761409E-01   0.13773666E-01   0.45924022E-01
  2147.6900       0.29185629E-01   0.29185626E-01   0.29185626E-01   0.29185626E-01   0.40032920E-01   0.22353994
  2147.7900       0.35767996E-01   0.35767992E-01   0.35767992E-01   0.35767992E-01   0.58481655E-01  -0.11607502
  2147.8900       0.40881960E-01   0.40881955E-01   0.40881955E-01   0.40881955E-01   0.16817916E-01  -0.20915160
  2147.9900       0.39131579E-01   0.39131575E-01   0.39131575E-01   0.39131575E-01   0.16651336E-01   0.13738685
  2148.0900       0.44212227E-01   0.44212222E-01   0.44212222E-01   0.44212222E-01   0.44295286E-01   0.62883948E-01
  2148.1900       0.47990636E-01   0.47990631E-01   0.47990631E-01   0.47990631E-01   0.29228126E-01  -0.20406049E-01
  2148.2900       0.50057852E-01   0.50057847E-01   0.50057847E-01   0.50057847E-01   0.40214076E-01   0.82342574E-01
  2148.3900       0.56033452E-01   0.56033445E-01   0.56033445E-01   0.56033445E-01   0.45696640E-01   0.20947434E-01
  2148.4900       0.59197180E-01   0.59197173E-01   0.59197173E-01   0.59197173E-01   0.44403563E-01   0.88599735E-02
  2148.5900       0.64914164E-01   0.64914157E-01   0.64914157E-01   0.64914157E-01   0.47468635E-01   0.57376397E-01
  2148.6900       0.68690907E-01   0.68690899E-01   0.68690899E-01   0.68690899E-01   0.55878843E-01  -0.22384187E-02
  2148.7900       0.76089933E-01   0.76089924E-01   0.76089924E-01   0.76089924E-01   0.47020951E-01   0.10461224
  2148.8900       0.78095098E-01   0.78095089E-01   0.78095089E-01   0.78095089E-01   0.76801290E-01   0.30549730
  2148.9900       0.91450191E-01   0.91450180E-01   0.91450180E-01   0.91450180E-01   0.10812041       0.81270215E-01
  2149.0900       0.99719180E-01   0.99719168E-01   0.99719168E-01   0.99719168E-01   0.93055333E-01  -0.10908907
  2149.1900       0.11006126       0.11006124       0.11006124       0.11006124       0.86302596E-01  -0.64174943E-01
  2149.2900       0.11697970       0.11697969       0.11697969       0.11697969       0.80220344E-01   0.97542999E-01
  2149.3900       0.12610533       0.12610531       0.12610531       0.12610531       0.10581120       0.35273314
  2149.4900       0.13814194       0.13814192       0.13814192       0.13814192       0.15076697       0.20249881
  2149.5900       0.15625872       0.15625870       0.15625870       0.15625870       0.14631096       0.29255612E-01
  2149.6900       0.16740413       0.16740411       0.16740411       0.16740411       0.15661809       0.22332131
  2149.7900       0.18758234       0.18758232       0.18758232       0.18758232       0.19097522       0.22977628
  2149.8900       0.20559917       0.20559915       0.20559915       0.20559915       0.20257335       0.32732969
  2149.9900       0.22809701       0.22809698       0.22809698       0.22809698       0.25644116       0.68245742
  2150.0900       0.25688741       0.25688737       0.25688737       0.25688737       0.33906483       0.47287896
  2150.1900       0.29590998       0.29590994       0.29590994       0.29590994       0.35101695       0.17688713
  2150.2900       0.32709079       0.32709076       0.32709076       0.32709076       0.37444226       0.93368087
  2150.3900       0.37079843       0.37079839       0.37079839       0.37079839       0.53775312        1.8544518
  2150.4900       0.43464142       0.43464137       0.43464137       0.43464137       0.74533262        1.4749617
  2150.5900       0.51986495       0.51986489       0.51986489       0.51986489       0.83274547        1.5521091
  2150.6900       0.60119051       0.60119044       0.60119044       0.60119044        1.0557544        2.6238432
  2150.7900       0.73101584       0.73101576       0.73101576       0.73101576        1.3575141        2.4259253
  2150.8900       0.87269334       0.87269323       0.87269323       0.87269323        1.5409395        2.5089030
  2150.9900        1.0392037        1.0392036        1.0392036        1.0392036        1.8592947        1.9390953
  2151.0900        1.2445523        1.2445521        1.2445521        1.2445521        1.9287586       0.11618955
  2151.1900        1.4249555        1.4249553        1.4249553        1.4249553        1.8825326       0.99739772E-01
  2151.2900        1.6210588        1.6210586        1.6210586        1.6210586        1.9487065        1.1292041
  2151.3900        1.8146968        1.8146965        1.8146965        1.8146965        2.1083734        2.3582522
  2151.4900        2.0427335        2.0427332        2.0427332        2.0427332        2.4203569        3.8658011
  2151.5900        2.2987681        2.2987679        2.2987679        2.2987679        2.8815337        6.4617421
  2151.6900        2.6190402        2.6190399        2.6190399        2.6190399        3.7127054        9.3736646
  2151.7900        3.0413092        3.0413089        3.0413089        3.0413089        4.7562666        11.775123
  2151.8900        3.5702935        3.5702931        3.5702931        3.5702931        6.0677301        9.7498230
  2151.9900        4.2548552        4.2548547        4.2548547        4.2548547        6.7062312        3.3982319
  2152.0900        4.9115398        4.9115392        4.9115392        4.9115392        6.7473764       -1.3580434
  2152.1900        5.6043305        5.6043299        5.6043299        5.6043299        6.4346225       -8.2727790
  2152.2900        6.1984643        6.1984635        6.1984635        6.1984635        5.0928206       -13.752220
  2152.3900        6.6228946        6.6228939        6.6228939        6.6228939        3.6841785       -13.385744
  2152.4900        6.9353000        6.9352992        6.9352992        6.9352992        2.4156719       -13.508596
  2152.5900        7.1060290        7.1060282        7.1060282        7.1060282       0.98245924       -12.205108
  2152.6900        7.1317918        7.1317910        7.1317910        7.1317910      -0.25349728E-01   -7.3493012
  2152.7900        7.1009591        7.1009582        7.1009582        7.1009582      -0.48740099       -7.0411282
  2152.8900        7.0343116        7.0343108        7.0343108        7.0343108       -1.4335754       -7.3493012
  2152.9900        6.8142440        6.8142432        6.8142432        6.8142432       -1.9572612       -4.7527355
  2153.0900        6.6428594        6.6428586        6.6428586        6.6428586       -2.3841225       -6.0801698
  2153.1900        6.3374195        6.3374188        6.3374188        6.3374188       -3.1732952       -6.0749642
  2153.2900        6.0082003        6.0081996        6.0081996        6.0081996       -3.5991153       -2.1207716
  2153.3900        5.6175964        5.6175958        5.6175958        5.6175958       -3.5974495       0.14575750
  2153.4900        5.2887104        5.2887098        5.2887098        5.2887098       -3.5699638      -0.57470098
  2153.5900        4.9036037        4.9036031        4.9036031        4.9036031       -3.7123897      -0.29984399
  2153.6900        4.5462325        4.5462320        4.5462320        4.5462320       -3.6299326       0.67808469
  2153.7900        4.1776172        4.1776167        4.1776167        4.1776167       -3.5767728       0.79614827
  2153.8900        3.8308779        3.8308775        3.8308775        3.8308775       -3.4707029        1.7895897
  2153.9900        3.4834766        3.4834762        3.4834973        3.4834973       -3.2188548        3.9024487
  2154.0900        3.1871070        1.1502369        3.1869178        1.1500481       -2.6902132        4.6767334
  2154.1900        2.9454339        1.1656914        2.9450349        1.1652928       -2.2835081        4.0569517
  2154.2900        2.7304054        1.1809340        2.7297965        1.1803254       -1.8788229        2.8566387
  2154.3900        2.5696694        1.1959657        2.5688506        1.1951473       -1.7121804        1.9785539
  2154.4900        2.3879693        1.2107877        2.3869407        1.2097594       -1.4831121        3.1085909
  2154.5900        2.2730469        1.2254011        2.2718085        1.2241629       -1.0904622        2.3447175
  2154.6900        2.1698768        1.2398071        2.1684285        1.2383590       -1.0141686        1.0886003
  2154.7900        2.0702132        1.2540068        2.0685550        1.2523489      -0.87274216        1.7228536
  2154.8900        1.9953284        1.2680014        1.9934603        1.2661335      -0.66959786        1.7647068
  2154.9900        1.9362937        1.2817919        1.9342157        1.2797142      -0.51980080        1.4274864
  2155.0900        1.8913682        1.2953796        1.8890804        1.2930920      -0.38410057       0.88495623
  2155.1900        1.8594735        1.3087655        1.8569758        1.3062680      -0.34280955       0.65799098
  2155.2900        1.8228063        1.3219508        1.8200987        1.3192435      -0.25250237       0.94169754
  2155.3900        1.8089731        1.3349367        1.8060556        1.3320194      -0.15447005      -0.10098912E-01
  2155.4900        1.7919123        1.3477242        1.7887850        1.3445971      -0.25452216      -0.59385768
  2155.5900        1.7580686        1.3603145        1.7547314        1.3569775      -0.27324158       0.29276434
  2155.6900        1.7372640        1.3727088        1.7337169        1.3691619      -0.19596929       0.50484150
  2155.7900        1.7188748        1.3849082        1.7151178        1.3811514      -0.17227328      -0.23571069
  2155.8900        1.7028093        1.3969138        1.6988425        1.3929471      -0.24311143      -0.22186373
  2155.9900        1.6702525        1.4087267        1.6660757        1.4045501      -0.21664603       0.55689775
  2156.0900        1.6594801        1.4203481        1.6550935        1.4159617      -0.13173188      -0.12972417
  2156.1900        1.6439061        1.4317792        1.6393096        1.4271829      -0.24259086      -0.78230130
  2156.2900        1.6109620        1.4430211        1.6061556        1.4382148      -0.28819214      -0.22415421
  2156.3900        1.5862677        1.4540748        1.5812514        1.4490587      -0.28742171       0.24226978
  2156.4900        1.5534776        1.4649416        1.5482515        1.4597156      -0.23973818       0.46642399
  2156.5900        1.5383200        1.4756226        1.5328840        1.4701867      -0.19413691       0.39427403
  2156.6900        1.5146502        1.4861189        1.5090043        1.4804732      -0.16088338       0.29744940
  2156.7900        1.5061434        1.4964317        1.5002876        1.4905760      -0.13464703       0.12524733
  2156.8900        1.4877208        1.5065621        1.4816551        1.5004965      -0.13583391       0.18115574E-01
  2156.9900        1.4789766        1.5165112        1.4727010        1.5102358      -0.13102391      -0.16782935
  2157.0900        1.4615161        1.5262801        1.4550306        1.5197948      -0.16939978       0.17209796
  2157.1900        1.4450966        1.5358701        1.4384013        1.5291749      -0.96604321E-01   0.59479470
  2157.2900        1.4421952        1.5452823        1.4352900        1.5383772      -0.50440839E-01  -0.30098923
  2157.3900        1.4350085        1.5545177        1.4278934        1.5474027      -0.15680217      -0.14960966
  2157.4900        1.4108348        1.5635775        1.4035098        1.5562527      -0.80362771E-01   0.54315490
  2157.5900        1.4189359        1.5724629        1.4114010        1.5649282      -0.48171187E-01   0.18948474
  2157.6900        1.4012005        1.5811750        1.3934558        1.5734304      -0.42465822E-01   0.39135888
  2157.7900        1.4104427        1.5897150        1.4024881        1.5817605       0.30100588E-01  -0.25684553
  2157.8900        1.4072206        1.5980839        1.3990561        1.5899195      -0.93834928E-01  -0.64560159
  2157.9900        1.3916758        1.6062829        1.3833014        1.5979087      -0.99019731E-01   0.95471160E-01
  2158.0900        1.3874167        1.6143132        1.3788324        1.6057290      -0.74740696E-01  -0.20031244
  2158.1900        1.3767276        1.6221758        1.3679335        1.6133818      -0.13908222       0.32066649
  2158.2900        1.3596002        1.6298720        1.3505962        1.6208681      -0.10607398E-01   0.76658032
  2158.3900        1.3746061        1.6374029        1.3653922        1.6281891       0.14233844E-01  -0.32139528
  2158.4900        1.3624470        1.6447695        1.3530232        1.6353458      -0.74886454E-01  -0.14221767
  2158.5900        1.3596289        1.6519731        1.3499952        1.6423395      -0.14209691E-01   0.40749631
  2158.6900        1.3596051        1.6590147        1.3497615        1.6491713       0.66128089E-02   0.29807408
  2158.7900        1.3609514        1.6658956        1.3508979        1.6558423       0.45405125E-01   0.55283736E-01
  2158.8900        1.3686861        1.6726168        1.3584227        1.6623536       0.17669556E-01  -0.36158270
  2158.9900        1.3644853        1.6791795        1.3540121        1.6687064      -0.26911415E-01   0.89849085E-01
  2159.0900        1.3633038        1.6855849        1.3526207        1.6749019       0.35639373E-01   0.17334731
  2159.1900        1.3716132        1.6918339        1.3607202        1.6809411       0.77580464E-02   0.43414911E-01
  2159.2900        1.3648554        1.6979279        1.3537525        1.6868252       0.44322355E-01   0.49744951
  2159.3900        1.3804777        1.7038680        1.3691649        1.6925554       0.10724795       0.31879247
  2159.4900        1.3863050        1.7096552        1.3747824        1.6981327       0.10808085      -0.10255081
  2159.5900        1.4020938        1.7152907        1.3903613        1.7035583       0.86737787E-01  -0.74128098E-01
  2159.6900        1.4036526        1.7207756        1.3917101        1.7088334       0.93255229E-01   0.47058849
  2159.7900        1.4207449        1.7261112        1.4085926        1.7139591       0.18085548       0.51160881
  2159.8900        1.4398237        1.7312985        1.4274615        1.7189365       0.19557699      -0.27693924
  2159.9900        1.4598603        1.7363386        1.4472882        1.7237667       0.12546764      -0.18604903
  2160.0900        1.4649172        1.7412328        1.4521352        1.7284510       0.15836718       0.18563258
  2160.1900        1.4915337        1.7459821        1.4785419        1.7329904       0.16259415      -0.64549748E-01
  2160.2900        1.4974360        1.7505876        1.4842343        1.7373861       0.14545723       0.45809499E-01
  2160.3900        1.5206252        1.7550506        1.5072135        1.7416391       0.17175605      -0.11525253
  2160.4900        1.5317872        1.7593721        1.5181657        1.7457508       0.12240673      -0.90230831E-01
  2160.9900        1.5940692        1.7788978        1.5793983        1.7642271       0.11761755      -0.47433654E-01
  2161.4900        1.6494048        1.7950579        1.6336844        1.7793378       0.74973074E-01  -0.82656994E-01
  2161.9900        1.6690423        1.8079947        1.6522725        1.7912251       0.34960560E-01  -0.82182241E-01
  2162.4900        1.6843654        1.8178502        1.6665462        1.8000312      -0.72091662E-02  -0.40928705E-01
  2162.9900        1.6618331        1.8247668        1.6429645        1.8058984      -0.59681452E-02   0.32882891E-01
  2163.4900        1.6783972        1.8288866        1.6584792        1.8089687       0.25673725E-01   0.27906314E-01
  2163.9900        1.6875068        1.8303518        1.6665394        1.8093845       0.21938168E-01   0.37734533E-01
  2164.4900        1.7003354        1.8293046        1.6783185        1.8072879       0.63408258E-01   0.62105187E-01
  2164.9900        1.7509151        1.8258872        1.7278488        1.8028211       0.84043355E-01   0.36580967E-01
  2165.4900        1.7843787        1.8202418        1.7602630        1.7961263       0.99989225E-01   0.20097876E-01
  2165.9900        1.8509043        1.8125107        1.8257392        1.7873458       0.10414123      -0.48724649E-02
  2166.4900        1.8885200        1.8028360        1.8623054        1.7766216       0.95116760E-01  -0.73794938E-02
  2166.9900        1.9460211        1.7913598        1.9187571        1.7640961       0.96761738E-01  -0.59523197E-01
  2167.4900        1.9852817        1.7782245        1.9569683        1.7499113       0.35593564E-01  -0.89670011E-01
  2167.9900        1.9816146        1.7635722        1.9522518        1.7342096       0.70917264E-02  -0.37043226E-01
  2168.4900        1.9923734        1.7475451        1.9619612        1.7171331      -0.14496629E-02  -0.34577843E-01
  2168.9900        1.9801650        1.7302854        1.9487033        1.6988240      -0.27486116E-01  -0.32016675E-01
  2169.4900        1.9648873        1.7119354        1.9323762        1.6794245      -0.33466338E-01  -0.22442490E-01
  2169.9900        1.9466986        1.6926371        1.9131381        1.6590768      -0.49928606E-01  -0.29672062E-01
  2170.4900        1.9149587        1.6725329        1.8803488        1.6379232      -0.63138400E-01  -0.14554927E-01
  2170.9900        1.8835602        1.6517648        1.8479009        1.6161057      -0.64483533E-01  -0.23454463E-01
  2171.4900        1.8504752        1.6304752        1.8137664        1.5937667      -0.86592863E-01  -0.39350359E-01
  2171.9900        1.7969674        1.6088062        1.7592092        1.5710482      -0.10383389      -0.29984399E-02
  2172.4900        1.7466413        1.5868999        1.7078337        1.5480926      -0.89591303E-01   0.23662688E-01
  2172.9900        1.7073761        1.5648987        1.6675191        1.5250419      -0.80171204E-01   0.14159300E-02
  2173.4900        1.6664701        1.5429447        1.6255637        1.5020385      -0.88175373E-01  -0.15604381E-01
  2173.9900        1.6192007        1.5211801        1.5772449        1.4792245      -0.95775585E-01  -0.19947954E-02
  2174.4900        1.5706945        1.4997471        1.5276893        1.4567421      -0.90170168E-01   0.26569509E-02
  2174.9900        1.5290305        1.4787878        1.4849759        1.4347333      -0.93118634E-01  -0.80416493E-02
  2175.4900        1.4775759        1.4584045        1.4324718        1.4133006      -0.98211818E-01   0.26590332E-01
  2175.9900        1.4308187        1.4386046        1.3846653        1.3924513      -0.66528303E-01   0.42069778E-01
  2176.4900        1.4110476        1.4193814        1.3638447        1.3721787      -0.56142040E-01  -0.72587233E-02
  2176.9900        1.3746767        1.4007282        1.3264244        1.3524761      -0.73787026E-01  -0.14413334E-01
  2177.4900        1.3372605        1.3826384        1.2879588        1.3333369      -0.70555374E-01   0.74544548E-02
  2177.9900        1.3041213        1.3651053        1.2537702        1.3147544      -0.66332571E-01  -0.21238949E-03
  2178.4900        1.2709280        1.3481223        1.2195274        1.2967220      -0.70767763E-01   0.11614790E-01
  2178.9900        1.2333535        1.3316828        1.1809036        1.2792330      -0.54717781E-01   0.19148370E-01
  2179.4900        1.2162102        1.3157799        1.1627108        1.2622807      -0.51619393E-01   0.11435717E-01
  2179.9900        1.1817342        1.3004072        1.1271854        1.2458586      -0.43282064E-01   0.22529944E-01
  2180.4900        1.1729281        1.2855579        1.1173299        1.2299599      -0.29089449E-01  -0.11410730E-01
  2180.9900        1.1526447        1.2712255        1.0959971        1.2145780      -0.54692794E-01  -0.16037489E-01
  2181.4900        1.1182353        1.2574031        1.0605383        1.1997062      -0.45126938E-01   0.36810014E-01
  2181.9900        1.1075178        1.2440842        1.0487713        1.1853379      -0.17882779E-01   0.16828744E-01
  2182.4900        1.1003525        1.2312622        1.0405567        1.1714664      -0.28298194E-01  -0.16782935E-02
  2182.9900        1.0792196        1.2189302        1.0183743        1.1580851      -0.19561073E-01   0.25957328E-01
  2183.4900        1.0807915        1.2070818        1.0188968        1.1451873      -0.23408658E-02   0.81915713E-02
  2183.9900        1.0768787        1.1957103        1.0139346        1.1327663      -0.11369502E-01  -0.83623158E-02
  2184.4900        1.0694220        1.1848089        1.0054284        1.1208155      -0.10703182E-01   0.14026036E-01
  2184.9900        1.0661755        1.1743711        1.0011326        1.1093283       0.26565340E-02   0.10040609E-01
  2185.4900        1.0720785        1.1643901        1.0059861        1.0982979      -0.66257239E-03  -0.63258753E-02
  2185.9900        1.0655130        1.1548594       0.99837118        1.0877177      -0.36693413E-02   0.47308719E-02
  2186.4900        1.0684092        1.1457722        1.0002180        1.0775811       0.40682995E-02   0.64799618E-02
  2186.9900        1.0695813        1.1371219        1.0003406        1.0678815       0.28106205E-02  -0.32483099E-02
  2187.4900        1.0712198        1.1289019        1.0009297        1.0586120       0.81998957E-03  -0.41603354E-02
  2187.9900        1.0704012        1.1211055       0.99906180        1.0497662      -0.13497149E-02  -0.16287359E-01
  2188.4900        1.0698701        1.1137260       0.99748120        1.0413372      -0.15467369E-01   0.57803258E-02
  2188.9900        1.0549339        1.1067568       0.98149559        1.0333186       0.44306110E-02   0.24570549E-01
  2189.4900        1.0743007        1.1001912       0.99981297        1.0257036       0.91031798E-02  -0.43102574E-02
  2189.9900        1.0640371        1.0940225       0.98849993        1.0184856       0.12035359E-03  -0.10519527E-01
  2190.4900        1.0744210        1.0882442       0.99783449        1.0116578      -0.14163469E-02  -0.56345683E-02
  2190.9900        1.0626207        1.0828496       0.98498475        1.0052137      -0.55142148E-02   0.77959438E-02
  2191.4900        1.0689068        1.0778319       0.99022144       0.99914663       0.63795969E-02   0.91660642E-02
  2191.9900        1.0690003        1.0731845       0.98926551       0.99344987       0.36518495E-02  -0.12555967E-01
  2192.4900        1.0725587        1.0689009       0.99177445       0.98811680      -0.61763702E-02  -0.48349844E-02
  2192.9900        1.0628239        1.0649742       0.98099031       0.98314075      -0.11831349E-02   0.12697560E-01
  2193.4900        1.0713755        1.0613980       0.98849248       0.97851506       0.65211899E-02  -0.34940154E-02
  2193.9900        1.0693451        1.0581654       0.98541266       0.97423309      -0.46771503E-02  -0.19731400E-01
  2194.4900        1.0666984        1.0552699       0.98171649       0.97028817      -0.13210211E-01   0.70713208E-02
  2194.9900        1.0561349        1.0527048       0.97010361       0.96667365       0.23941705E-02   0.26619483E-01
  2195.4900        1.0690925        1.0504635       0.98201183       0.96338286       0.13409273E-01   0.11660600E-02
  2195.9900        1.0695442        1.0485392       0.98141405       0.96040916       0.35602305E-02  -0.14825620E-02
  2196.4900        1.0726528        1.0469253       0.98347322       0.95774589       0.11926711E-01   0.85497183E-02
  2196.9900        1.0814709        1.0456152       0.99124192       0.95538639       0.12109949E-01  -0.12106201E-01
  2197.4900        1.0847627        1.0446023       0.99348433       0.95332400      -0.17949040E-03  -0.99073452E-02
  2197.9900        1.0812914        1.0438797       0.98896360       0.95155207       0.22026035E-02   0.54263433E-02
  2198.4900        1.0869653        1.0434410       0.99358810       0.95006393       0.52468529E-02   0.23820939E-02
  2198.9900        1.0865383        1.0432795       0.99211161       0.94885294       0.45846975E-02   0.10519527E-01
  2199.4900        1.0915500        1.0433884       0.99607396       0.94791244       0.15766380E-01  -0.68630958E-02
  2199.9900        1.1023046        1.0437611        1.0057792       0.94723576      -0.22783983E-02  -0.18272437E-01
  2200.4900        1.0892716        1.0443910       0.99169673       0.94681626      -0.25060577E-02   0.10550066E-01
  2201.4900        1.0985456        1.0463957       0.99887181       0.94672214       0.13546701E-01   0.64865556E-02
  2202.4900        1.1163650        1.0493493        1.0145925       0.94757683       0.10467054E-01  -0.54960987E-02
  2203.4900        1.1194797        1.0531984        1.0156082       0.94932707       0.25545038E-02  -0.40541406E-02
  2204.4900        1.1214740        1.0578897        1.0155038       0.95191961       0.23587723E-02  -0.11556487E-03
  2205.4900        1.1241972        1.0633702        1.0161281       0.95530120       0.23233740E-02  -0.26444574E-03
  2206.4900        1.1261208        1.0695864        1.0159529       0.95941858       0.18298808E-02  -0.16054147E-02
  2207.4900        1.1278570        1.0764851        1.0155902       0.96421849      -0.88745538E-03  -0.18365444E-02
  2208.4900        1.1243459        1.0840131        1.0099803       0.96964768      -0.18432081E-02  -0.16710056E-02
  2209.4900        1.1241705        1.0921172        1.0077061       0.97565291      -0.42294665E-02  -0.35085912E-03
  2210.4900        1.1158869        1.1007440       0.99732368       0.98218090      -0.25449263E-02   0.20229058E-02
  2211.4900        1.1190807        1.1098404       0.99841859       0.98917841      -0.18365490E-03   0.12045816E-02
  2212.4900        1.1155196        1.1193530       0.99275870       0.99659219      -0.13576316E-03  -0.10681942E-02
  2213.4900        1.1188092        1.1292286       0.99394940        1.0043690      -0.23200433E-02   0.15720987E-02
  2214.4900        1.1108795        1.1394140       0.98392094        1.0124555       0.30084343E-02   0.46090602E-02
  2215.4900        1.1248260        1.1498559       0.99576859        1.0207986       0.68980771E-02   0.14575750E-02
  2216.4900        1.1246757        1.1605010       0.99351942        1.0293449       0.59235842E-02   0.54013563E-02
  2217.4900        1.1366732        1.1712961        1.0034181        1.0380411       0.17700790E-01   0.38178053E-02
  2218.4900        1.1600773        1.1821880        1.0247233        1.0468342       0.13559195E-01  -0.78542468E-02
  2219.4900        1.1637916        1.1931233        1.0263388        1.0556707       0.19922963E-02  -0.23560658E-02
  2220.4900        1.1640619        1.2040489        1.0245102        1.0644974       0.88470631E-02   0.51483630E-02
  2221.4900        1.1814857        1.2149115        1.0398353        1.0732611       0.12289022E-01   0.12826660E-02
  2222.4900        1.1886399        1.2256577        1.0448906        1.0819086       0.11412395E-01   0.45642919E-02
  2223.4900        1.2043105        1.2362345        1.0584624        1.0903865       0.21417606E-01   0.49901120E-02
  2224.4900        1.2314751        1.2465884        1.0835281        1.0986416       0.21392619E-01  -0.62144750E-02
  2225.4900        1.2470957        1.2566663        1.0970499        1.1066206       0.89886561E-02  -0.28974508E-02
  2226.4900        1.2494524        1.2664149        1.0973078        1.1142704       0.15597717E-01   0.53878217E-02
  2227.4900        1.2782912        1.2757810        1.1240477        1.1215376       0.19764300E-01  -0.43664781E-02
  2228.4900        1.2889810        1.2847112        1.1326387        1.1283691       0.68647611E-02  -0.79198377E-02
  2229.4900        1.2920207        1.2931524        1.1335795        1.1347114       0.39246242E-02  -0.11140037E-02
  2230.4900        1.2968303        1.3010513        1.1362903        1.1405115       0.46367537E-02   0.28193664E-02
  2231.4900        1.3012942        1.3083546        1.1386554        1.1457159       0.95633571E-02   0.19687673E-02
  2232.4900        1.3159570        1.3150091        1.1512193        1.1502716       0.85742883E-02  -0.69515914E-02
  2233.4900        1.3184428        1.3209615        1.1516063        1.1541252      -0.43398258E-02  -0.11015102E-02
  2234.4900        1.3072773        1.3261586        1.1383420        1.1572234       0.63712679E-02   0.76689265E-02
  2235.4900        1.3311853        1.3305471        1.1601511        1.1595131       0.10998027E-01  -0.37824070E-02
  2236.4900        1.3292734        1.3340738        1.1561404        1.1609409      -0.11935461E-02  -0.35908400E-02
  2237.4900        1.3287982        1.3366853        1.1535664        1.1614536       0.38163472E-02   0.46507052E-02
  2238.4900        1.3369061        1.3383286        1.1595754        1.1609980       0.81078644E-02   0.42915171E-02
