# XDI/1.0 Athena/0.9.26
# Element.edge:                  K
# Element.symbol:                P
# Column.1:                      energy eV
# Column.2:                      norm
# Column.3:                      nbkg
# Column.4:                      flat
# Column.5:                      fbkg
# Column.6:                      nder
# Column.7:                      nsec
# Athena.e0:                     2154
# Athena.eshift:                 0
# Athena.rbkg:                   1.0
# Athena.importance:             1
# Athena.standard:               None
# Athena.bkg_kweight:            2
# Athena.edge_step:              0.2817294
# Athena.fixed_step:             no
# Athena.pre_edge_range:         -25.4 -7
# Athena.pre_edge_line:          0.510468 - 0.000196406 * E
# Athena.normalization_range:    24 60.6
# Athena.post_edge_polynomial:   1.362715 - 0.00046127 * E + 0 * E^2 + 0 * E^3
# Athena.spline_range_energy:    0.000 85.601
# Athena.clamps:                 0 24
# Athena.spline_range_k:         0.000 4.740
# Athena.kweight:                2
# Athena.window:                 hanning
# Athena.phase_correction:       no
# Athena.k_range:                2.740 3.000
# Athena.dk:                     1
# Athena.r_range:                1 3
# Athena.dr:                     0.0
# Athena.window:                 hanning
# Athena.plot_multiplier:        1
# Athena.y_offset:               0
# ///
#------------------------
#   e         norm        nbkg        flat        fbkg        nder        nsec
  2125.4900       0.36403854E-01   0.36403859E-01   0.36403859E-01   0.36403859E-01  -0.54186520E-02   0.23945847E-03
  2127.4900       0.25566550E-01   0.25566554E-01   0.25566554E-01   0.25566554E-01  -0.49397351E-02   0.87572939E-03
  2129.4900       0.16644914E-01   0.16644916E-01   0.16644916E-01   0.16644916E-01  -0.19157345E-02   0.18463193E-02
  2131.4900       0.17903612E-01   0.17903615E-01   0.17903615E-01   0.17903615E-01   0.24455421E-02   0.29214643E-03
  2133.4900       0.26427082E-01   0.26427086E-01   0.26427086E-01   0.26427086E-01  -0.74714874E-03  -0.18492476E-02
  2135.4900       0.14915017E-01   0.14915019E-01   0.14915019E-01   0.14915019E-01  -0.49514484E-02  -0.10045542E-02
  2137.4900       0.66212883E-02   0.66212892E-02   0.66212892E-02   0.66212892E-02  -0.47653657E-02  -0.50454732E-04
  2139.4900      -0.41464454E-02  -0.41464460E-02  -0.41464460E-02  -0.41464460E-02  -0.51532674E-02   0.62820319E-03
  2140.4900      -0.88385138E-02  -0.88385151E-02  -0.88385151E-02  -0.88385151E-02  -0.28807561E-02   0.67496523E-02
  2140.5900      -0.73152771E-02  -0.73152782E-02  -0.73152782E-02  -0.73152782E-02   0.22713501E-02   0.15520210E-01
  2140.6900      -0.83842438E-02  -0.83842450E-02  -0.83842450E-02  -0.83842450E-02   0.22328587E-03  -0.15351608E-01
  2140.7900      -0.72706199E-02  -0.72706210E-02  -0.72706210E-02  -0.72706210E-02  -0.79897151E-03  -0.83945788E-02
  2140.8900      -0.85440381E-02  -0.85440393E-02  -0.85440393E-02  -0.85440393E-02  -0.14556299E-02  -0.53269193E-01
  2140.9900      -0.75617459E-02  -0.75617470E-02  -0.75617470E-02  -0.75617470E-02  -0.11452810E-01  -0.11021212E-01
  2141.0900      -0.10834600E-01  -0.10834602E-01  -0.10834602E-01  -0.10834602E-01  -0.36598724E-02   0.12986751
  2141.1900      -0.82937204E-02  -0.82937216E-02  -0.82937216E-02  -0.82937216E-02   0.14520691E-01   0.36559899E-02
  2141.2900      -0.79304619E-02  -0.79304630E-02  -0.79304630E-02  -0.79304630E-02  -0.29286744E-02  -0.15084508
  2141.3900      -0.88794553E-02  -0.88794566E-02  -0.88794565E-02  -0.88794566E-02  -0.15648325E-01   0.48992040E-01
  2141.4900      -0.11060127E-01  -0.11060128E-01  -0.11060128E-01  -0.11060128E-01   0.68697336E-02   0.18342066
  2141.5900      -0.75055086E-02  -0.75055096E-02  -0.75055096E-02  -0.75055096E-02   0.21035807E-01  -0.87113722E-01
  2141.6900      -0.68529654E-02  -0.68529664E-02  -0.68529664E-02  -0.68529664E-02  -0.10553011E-01  -0.18055444
  2141.7900      -0.96161107E-02  -0.96161121E-02  -0.96161121E-02  -0.96161121E-02  -0.15075080E-01   0.11345105
  2141.8900      -0.98679814E-02  -0.98679828E-02  -0.98679828E-02  -0.98679828E-02   0.12137199E-01   0.20079549
  2141.9900      -0.71886709E-02  -0.71886720E-02  -0.71886720E-02  -0.71886720E-02   0.25084017E-01  -0.92908288E-02
  2142.0900      -0.48511779E-02  -0.48511786E-02  -0.48511785E-02  -0.48511786E-02   0.10279033E-01  -0.17747524
  2142.1900      -0.51328644E-02  -0.51328651E-02  -0.51328651E-02  -0.51328651E-02  -0.10411031E-01  -0.42957882E-01
  2142.2900      -0.69333840E-02  -0.69333850E-02  -0.69333849E-02  -0.69333850E-02   0.16874566E-02   0.83661828E-01
  2142.3900      -0.47953730E-02  -0.47953737E-02  -0.47953737E-02  -0.47953737E-02   0.63213351E-02  -0.24047895E-01
  2142.4900      -0.56691169E-02  -0.56691178E-02  -0.56691177E-02  -0.56691178E-02  -0.31221224E-02  -0.30197412E-01
  2142.5900      -0.54197975E-02  -0.54197983E-02  -0.54197983E-02  -0.54197983E-02   0.28185270E-03  -0.28928464E-02
  2142.6900      -0.56127464E-02  -0.56127472E-02  -0.56127472E-02  -0.56127472E-02  -0.37006917E-02  -0.35920989E-01
  2142.7900      -0.61599359E-02  -0.61599368E-02  -0.61599367E-02  -0.61599368E-02  -0.69023450E-02   0.11997326E-01
  2142.8900      -0.69932154E-02  -0.69932164E-02  -0.69932164E-02  -0.69932164E-02  -0.13012264E-02   0.88959464E-01
  2142.9900      -0.64201811E-02  -0.64201821E-02  -0.64201821E-02  -0.64201821E-02   0.10889548E-01   0.26798761E-01
  2143.0900      -0.48153058E-02  -0.48153065E-02  -0.48153065E-02  -0.48153065E-02   0.40585258E-02  -0.63678116E-01
  2143.1900      -0.56084760E-02  -0.56084768E-02  -0.56084768E-02  -0.56084768E-02  -0.18460754E-02   0.61601656E-01
  2143.2900      -0.51845209E-02  -0.51845217E-02  -0.51845217E-02  -0.51845217E-02   0.16378857E-01  -0.22521608E-01
  2143.3900      -0.23327046E-02  -0.23327049E-02  -0.23327049E-02  -0.23327049E-02  -0.63503970E-02  -0.16072158
  2143.4900      -0.64546003E-02  -0.64546013E-02  -0.64546013E-02  -0.64546013E-02  -0.15765458E-01   0.93538325E-01
  2143.5900      -0.54857963E-02  -0.54857971E-02  -0.54857971E-02  -0.54857971E-02   0.12357268E-01   0.11629065
  2143.6900      -0.39831467E-02  -0.39831473E-02  -0.39831473E-02  -0.39831473E-02   0.74926717E-02  -0.54795480E-01
  2143.7900      -0.39872620E-02  -0.39872625E-02  -0.39872625E-02  -0.39872625E-02   0.13981720E-02  -0.94487818E-01
  2143.8900      -0.37035123E-02  -0.37035129E-02  -0.37035129E-02  -0.37035129E-02  -0.11404892E-01  -0.65976420E-01
  2143.9900      -0.62682403E-02  -0.62682412E-02  -0.62682412E-02  -0.62682412E-02  -0.11797112E-01   0.12623814
  2144.0900      -0.60629348E-02  -0.60629356E-02  -0.60629356E-02  -0.60629356E-02   0.13842736E-01   0.74903425E-01
  2144.1900      -0.34996932E-02  -0.34996937E-02  -0.34996937E-02  -0.34996937E-02   0.31835729E-02  -0.38290283E-01
  2144.2900      -0.54262202E-02  -0.54262210E-02  -0.54262210E-02  -0.54262210E-02   0.61846792E-02   0.82179910E-01
  2144.3900      -0.22627573E-02  -0.22627577E-02  -0.22627577E-02  -0.22627577E-02   0.19619555E-01   0.17658786E-02
  2144.4900      -0.15023092E-02  -0.15023095E-02  -0.15023094E-02  -0.15023095E-02   0.65378549E-02  -0.10832201
  2144.5900      -0.95518635E-03  -0.95518650E-03  -0.95518648E-03  -0.95518650E-03  -0.20448477E-02   0.16966633E-01
  2144.6900      -0.19112788E-02  -0.19112790E-02  -0.19112790E-02  -0.19112790E-02   0.99311815E-02   0.16138711
  2144.7900       0.10310500E-02   0.10310501E-02   0.10310501E-02   0.10310501E-02   0.30232574E-01  -0.72365529E-01
  2144.8900       0.41352361E-02   0.41352367E-02   0.41352367E-02   0.41352367E-02  -0.45419243E-02  -0.19337702
  2144.9900       0.12266509E-03   0.12266509E-03   0.12266510E-03   0.12266509E-03  -0.84428301E-02   0.11290975
  2145.0900       0.24466701E-02   0.24466704E-02   0.24466704E-02   0.24466704E-02   0.18040025E-01   0.30871818E-01
  2145.1900       0.37306701E-02   0.37306706E-02   0.37306707E-02   0.37306706E-02  -0.22684665E-02  -0.44519664E-01
  2145.2900       0.19929768E-02   0.19929770E-02   0.19929770E-02   0.19929770E-02   0.91360924E-02   0.93529451E-01
  2145.3900       0.55578886E-02   0.55578894E-02   0.55578894E-02   0.55578894E-02   0.16437424E-01   0.17215098E-02
  2145.4900       0.52804615E-02   0.52804623E-02   0.52804623E-02   0.52804623E-02   0.94803944E-02  -0.11864220E-01
  2145.5900       0.74539675E-02   0.74539685E-02   0.74539686E-02   0.74539685E-02   0.14064580E-01  -0.96999092E-01
  2145.6900       0.80933775E-02   0.80933786E-02   0.80933786E-02   0.80933786E-02  -0.99194241E-02  -0.12844770
  2145.7900       0.54700827E-02   0.54700834E-02   0.54700834E-02   0.54700834E-02  -0.11624961E-01   0.71983957E-01
  2145.8900       0.57683853E-02   0.57683861E-02   0.57683861E-02   0.57683861E-02   0.44773674E-02   0.14079998
  2145.9900       0.63655561E-02   0.63655570E-02   0.63655571E-02   0.63655570E-02   0.16535035E-01   0.73448128E-01
  2146.0900       0.90753923E-02   0.90753936E-02   0.90753936E-02   0.90753936E-02   0.19166993E-01  -0.89305541E-01
  2146.1900       0.10198955E-01   0.10198956E-01   0.10198956E-01   0.10198956E-01  -0.13260730E-02  -0.77112992E-01
  2146.2900       0.88101777E-02   0.88101789E-02   0.88101789E-02   0.88101789E-02   0.37443946E-02   0.38796087E-01
  2146.3900       0.10947834E-01   0.10947835E-01   0.10947835E-01   0.10947835E-01   0.64331445E-02   0.40136026E-01
  2146.4900       0.10096807E-01   0.10096808E-01   0.10096808E-01   0.10096808E-01   0.11771600E-01   0.73900690E-01
  2146.5900       0.13302154E-01   0.13302155E-01   0.13302156E-01   0.13302155E-01   0.21213282E-01   0.36160580E-01
  2146.6900       0.14339463E-01   0.14339465E-01   0.14339465E-01   0.14339465E-01   0.19003716E-01  -0.22157784E-01
  2146.7900       0.17102897E-01   0.17102899E-01   0.17102899E-01   0.17102899E-01   0.16781726E-01  -0.12279512
  2146.8900       0.17695808E-01   0.17695811E-01   0.17695811E-01   0.17695811E-01  -0.55553079E-02  -0.23648576E-01
  2146.9900       0.15991835E-01   0.15991837E-01   0.15991837E-01   0.15991837E-01   0.12052011E-01   0.24166803
  2147.0900       0.20106210E-01   0.20106213E-01   0.20106213E-01   0.20106213E-01   0.42778299E-01   0.30774207E-01
  2147.1900       0.24547495E-01   0.24547498E-01   0.24547498E-01   0.24547498E-01   0.18206852E-01  -0.18538176
  2147.2900       0.23747581E-01   0.23747584E-01   0.23747584E-01   0.23747584E-01   0.57019465E-02  -0.86341704E-02
  2147.3900       0.25687884E-01   0.25687888E-01   0.25687888E-01   0.25687888E-01   0.16480018E-01   0.95321951E-01
  2147.4900       0.27043584E-01   0.27043588E-01   0.27043588E-01   0.27043588E-01   0.24766337E-01   0.75116395E-01
  2147.5900       0.30641152E-01   0.30641156E-01   0.30641156E-01   0.30641156E-01   0.31503297E-01   0.33755791E-01
  2147.6900       0.33344244E-01   0.33344248E-01   0.33344248E-01   0.33344248E-01   0.31517495E-01  -0.53349057E-01
  2147.7900       0.36944651E-01   0.36944656E-01   0.36944656E-01   0.36944656E-01   0.20833485E-01  -0.10950222
  2147.8900       0.37510941E-01   0.37510946E-01   0.37510946E-01   0.37510946E-01   0.96170503E-02   0.13346138
  2147.9900       0.38868061E-01   0.38868066E-01   0.38868066E-01   0.38868066E-01   0.47525762E-01   0.15416387
  2148.0900       0.47016093E-01   0.47016100E-01   0.47016100E-01   0.47016100E-01   0.40449824E-01  -0.19066165
  2148.1900       0.46958025E-01   0.46958032E-01   0.46958032E-01   0.46958032E-01   0.93934315E-02  -0.81274786E-01
  2148.2900       0.48894779E-01   0.48894786E-01   0.48894786E-01   0.48894786E-01   0.24194867E-01   0.15449220
  2148.3900       0.51796999E-01   0.51797006E-01   0.51797006E-01   0.51797006E-01   0.40291871E-01   0.15671064
  2148.4900       0.56953154E-01   0.56953162E-01   0.56953162E-01   0.56953162E-01   0.55536994E-01   0.43836384E-01
  2148.5900       0.62904397E-01   0.62904406E-01   0.62904406E-01   0.62904406E-01   0.49059148E-01  -0.20054702E-01
  2148.6900       0.66764983E-01   0.66764993E-01   0.66764993E-01   0.66764993E-01   0.51526053E-01   0.96724006E-01
  2148.7900       0.73209608E-01   0.73209619E-01   0.73209619E-01   0.73209619E-01   0.68403949E-01   0.32921657E-01
  2148.8900       0.80445773E-01   0.80445784E-01   0.80445784E-01   0.80445784E-01   0.58110385E-01  -0.45699874E-01
  2148.9900       0.84831685E-01   0.84831697E-01   0.84831697E-01   0.84831697E-01   0.59263974E-01   0.10772747
  2149.0900       0.92298568E-01   0.92298581E-01   0.92298581E-01   0.92298581E-01   0.79655879E-01   0.12423267
  2149.1900       0.10076286       0.10076288       0.10076288       0.10076288       0.84110508E-01   0.69215344E-01
  2149.2900       0.10912067       0.10912068       0.10912068       0.10912068       0.93498948E-01   0.12103811
  2149.3900       0.11946265       0.11946267       0.11946267       0.11946267       0.10831813       0.79686383E-01
  2149.4900       0.13078430       0.13078431       0.13078431       0.13078431       0.10943622       0.54839849E-01
  2149.5900       0.14134990       0.14134992       0.14134992       0.14134992       0.11928610       0.19850606
  2149.6900       0.15464152       0.15464154       0.15464154       0.15464154       0.14913744       0.28120952
  2149.7900       0.17117738       0.17117741       0.17117741       0.17117741       0.17552800       0.21989182
  2149.8900       0.18974712       0.18974714       0.18974714       0.18974714       0.19311580       0.26115482
  2149.9900       0.20980054       0.20980057       0.20980057       0.20980057       0.22775897       0.44129218
  2150.0900       0.23529891       0.23529894       0.23529894       0.23529894       0.28137424       0.58433723
  2150.1900       0.26607539       0.26607543       0.26607543       0.26607543       0.34462641       0.58788673
  2150.2900       0.30422419       0.30422424       0.30422424       0.30422424       0.39895158       0.84992892
  2150.3900       0.34586571       0.34586576       0.34586576       0.34586576       0.51461220        1.2070091
  2150.4900       0.40714663       0.40714669       0.40714669       0.40714669       0.64035340        1.1328245
  2150.5900       0.47393639       0.47393645       0.47393645       0.47393645       0.74117709        1.3811123
  2150.6900       0.55538205       0.55538213       0.55538213       0.55538213       0.91657587        1.7382812
  2150.7900       0.65725156       0.65725165       0.65725165       0.65725165        1.0888333        1.3041768
  2150.8900       0.77314872       0.77314883       0.77314883       0.77314883        1.1774112       0.56650097
  2150.9900       0.89273381       0.89273393       0.89273393       0.89273393        1.2021335       0.19211695
  2151.0900        1.0135754        1.0135756        1.0135756        1.0135756        1.2158346       0.71123202
  2151.1900        1.1359007        1.1359009        1.1359009        1.1359009        1.3443799        1.6809567
  2151.2900        1.2824514        1.2824516        1.2824516        1.2824516        1.5520260        2.5446400
  2151.3900        1.4463059        1.4463061        1.4463061        1.4463061        1.8533079        4.0750090
  2151.4900        1.6531130        1.6531132        1.6531132        1.6531132        2.3670278        6.4234501
  2151.5900        1.9197115        1.9197117        1.9197117        1.9197117        3.1379980        8.2183459
  2151.6900        2.2807126        2.2807129        2.2807129        2.2807129        4.0106969        8.5142859
  2151.7900        2.7218509        2.7218513        2.7218513        2.7218513        4.8408551        8.3337048
  2151.8900        3.2488836        3.2488841        3.2488841        3.2488841        5.6774379        6.6027001
  2151.9900        3.8573384        3.8573390        3.8573390        3.8573390        6.1613951        3.0054545
  2152.0900        4.4811626        4.4811633        4.4811633        4.4811633        6.2785288      -0.31413117
  2152.1900        5.1130442        5.1130449        5.1130449        5.1130449        6.0985689       -4.2514194
  2152.2900        5.7008764        5.7008772        5.7008772        5.7008772        5.4282449       -8.4194254
  2152.3900        6.1986932        6.1986941        6.1986941        6.1986941        4.4146838       -10.908516
  2152.4900        6.5838132        6.5838141        6.5838141        6.5838141        3.2465418       -12.193436
  2152.5900        6.8480016        6.8480025        6.8480025        6.8480025        1.9759966       -10.973294
  2152.6900        6.9790125        6.9790135        6.9790135        6.9790135        1.0518830       -9.0672100
  2152.7900        7.0583782        7.0583792        7.0583792        7.0583792       0.16255456       -9.0503499
  2152.8900        7.0115234        7.0115244        7.0115244        7.0115244      -0.75818698       -9.3946518
  2152.9900        6.9067408        6.9067417        6.9067417        6.9067417       -1.7163758       -9.0947187
  2153.0900        6.6682483        6.6682492        6.6682492        6.6682492       -2.5771307       -6.8895888
  2153.1900        6.3913146        6.3913155        6.3913155        6.3913155       -3.0942936       -5.0740171
  2153.2900        6.0493895        6.0493904        6.0493904        6.0493904       -3.5919341       -4.3756520
  2153.3900        5.6729278        5.6729286        5.6729286        5.6729286       -3.9694240       -2.9123687
  2153.4900        5.2555047        5.2555055        5.2555055        5.2555055       -4.1744079       -1.1518143
  2153.5900        4.8380462        4.8380469        4.8380469        4.8380469       -4.1997868       0.12423267E-01
  2153.6900        4.4155474        4.4155480        4.4155480        4.4155480       -4.1719232       0.92109650
  2153.7900        4.0036616        4.0036621        4.0036621        4.0036621       -4.0155675        1.9779615
  2153.8900        3.6124339        3.6124344        3.6124344        3.6124344       -3.7763309        2.8127163
  2153.9900        3.2483954        3.2483959        3.2483863        3.2483863       -3.4530243        4.1142310
  2154.0900        2.9218290        1.1066742        2.9219139        1.1067587       -2.9534847        4.9214771
  2154.1900        2.6576984        1.1195877        2.6578773        1.1197661       -2.4687288        4.0679987
  2154.2900        2.4280833        1.1323196        2.4283561        1.1325921       -2.1398850        3.0909088
  2154.3900        2.2297215        1.1448711        2.2300883        1.1452376       -1.8505471        3.2599539
  2154.4900        2.0579738        1.1572431        2.0584347        1.1577036       -1.4878942        3.0213385
  2154.5900        1.9321426        1.1694365        1.9326974        1.1699910       -1.2462794        2.0304055
  2154.6900        1.8087180        1.1814523        1.8093668        1.1821008       -1.0818131        1.9547123
  2154.7900        1.7157800        1.1932915        1.7165228        1.1940341      -0.85533693        1.8064317
  2154.8900        1.6376506        1.2049551        1.6384874        1.2057917      -0.72052674        1.4246825
  2154.9900        1.5716747        1.2164441        1.5726055        1.2173747      -0.57040043        1.4753517
  2155.0900        1.5235705        1.2277594        1.5245953        1.2287840      -0.42545640        1.3297332
  2155.1900        1.4865834        1.2389020        1.4877022        1.2400206      -0.30445378       0.95419563
  2155.2900        1.4626797        1.2498728        1.4638926        1.2510855      -0.23461728       0.43614540
  2155.3900        1.4396599        1.2606730        1.4409668        1.2619796      -0.21722470       0.32460221
  2155.4900        1.4192348        1.2713034        1.4206357        1.2727040      -0.16969683       0.52275332
  2155.5900        1.4057206        1.2817650        1.4072154        1.2832596      -0.11267404       0.32797424
  2155.6900        1.3967000        1.2920588        1.3982889        1.2936474      -0.10410198       0.44564033
  2155.7900        1.3849002        1.3021857        1.3865831        1.3038684      -0.23545973E-01   0.58912906
  2155.8900        1.3919908        1.3121468        1.3937677        1.3139235       0.13723827E-01  -0.11358415
  2155.9900        1.3876449        1.3219431        1.3895158        1.3238138      -0.46262804E-01  -0.49781805E-01
  2156.0900        1.3827382        1.3315754        1.3847032        1.3335401       0.37674664E-02   0.59489700
  2156.1900        1.3883984        1.3410448        1.3904574        1.3431036       0.72716597E-01   0.28369417
  2156.2900        1.3972815        1.3503523        1.3994345        1.3525051       0.60506301E-01   0.70280195E-01
  2156.3900        1.4004997        1.3594988        1.4027467        1.3617456       0.86772636E-01   0.23337994
  2156.4900        1.4146361        1.3684853        1.4169771        1.3708261       0.10718229       0.91399749E-02
  2156.5900        1.4219361        1.3773128        1.4243711        1.3797476       0.88600631E-01  -0.21252660
  2156.6900        1.4323562        1.3859822        1.4348852        1.3885111       0.64676969E-01   0.41440469E-01
  2156.7900        1.4348715        1.3944946        1.4374946        1.3971175       0.96888725E-01   0.20125692
  2156.8900        1.4517339        1.4028510        1.4544510        1.4055678       0.10492835      -0.25938006
  2156.9900        1.4558572        1.4110522        1.4586683        1.4138630       0.45012712E-01  -0.38068439E-01
  2157.0900        1.4607365        1.4190992        1.4636416        1.4220041       0.97314665E-01   0.47030939E-01
  2157.1900        1.4753201        1.4269932        1.4783192        1.4299921       0.54418900E-01  -0.39319639
  2157.2900        1.4716203        1.4347349        1.4747134        1.4378278       0.18675387E-01   0.27455420
  2157.3900        1.4790552        1.4423255        1.4822423        1.4455124       0.10932974       0.19761868
  2157.4900        1.4934862        1.4497658        1.4967674        1.4530467       0.58199122E-01  -0.49559961
  2157.5900        1.4906950        1.4570569        1.4940702        1.4604318       0.10209818E-01  -0.18998724
  2157.6900        1.4955282        1.4641997        1.4989974        1.4676687       0.20201674E-01  -0.27189207
  2157.7900        1.4947354        1.4711952        1.4982986        1.4747582      -0.44168596E-01  -0.27748254
  2157.8900        1.4866945        1.4780445        1.4903517        1.4817015      -0.35294834E-01   0.17348205
  2157.9900        1.4876764        1.4847483        1.4914276        1.4884993      -0.94721865E-02  -0.24047895E-01
  2158.0900        1.4848000        1.4913079        1.4886453        1.4951529      -0.40104413E-01   0.70812621E-01
  2158.1900        1.4796555        1.4977240        1.4835948        1.5016630       0.46903377E-02   0.15866286
  2158.2900        1.4857381        1.5039977        1.4897713        1.5080308      -0.83718400E-02  -0.51645295
  2158.3900        1.4779811        1.5101300        1.4821084        1.5142571      -0.98600252E-01  -0.10657388
  2158.4900        1.4660180        1.5161219        1.4702393        1.5203429      -0.29686616E-01   0.56179787
  2158.5900        1.4720438        1.5219742        1.4763591        1.5262893       0.13759322E-01  -0.11606881
  2158.6900        1.4687699        1.5276881        1.4731792        1.5320972      -0.52900378E-01  -0.23621954
  2158.7900        1.4614637        1.5332645        1.4659671        1.5377676      -0.33484586E-01   0.25813774
  2158.8900        1.4620730        1.5387043        1.4666703        1.5433014      -0.12728304E-02  -0.66996903E-01
  2158.9900        1.4612092        1.5440085        1.4659005        1.5486997      -0.46883967E-01  -0.77024254E-01
  2159.0900        1.4526962        1.5491782        1.4574816        1.5539633      -0.16677681E-01   0.37243179
  2159.1900        1.4578736        1.5542142        1.4627530        1.5590934       0.27602391E-01   0.22770073
  2159.2900        1.4582167        1.5591176        1.4631901        1.5640908       0.28862465E-01   0.87850244E-02
  2159.3900        1.4636461        1.5638893        1.4687135        1.5689565       0.29359396E-01  -0.34865011
  2159.4900        1.4640886        1.5685304        1.4692500        1.5736916      -0.40867556E-01  -0.47518995
  2159.5900        1.4554726        1.5730417        1.4607281        1.5782970      -0.65678595E-01   0.93351976E-01
  2159.6900        1.4509528        1.5774244        1.4563023        1.5827736      -0.22197161E-01   0.49515592E-01
  2159.7900        1.4510332        1.5816792        1.4564767        1.5871225      -0.55775477E-01  -0.39985172
  2159.8900        1.4397977        1.5858073        1.4453352        1.5913446      -0.10216750      -0.10825990E-01
  2159.9900        1.4305997        1.5898096        1.4362312        1.5954409      -0.57940675E-01   0.50092386
  2160.0900        1.4282096        1.5936871        1.4339351        1.5994124      -0.19827314E-02  -0.10089467
  2160.1900        1.4302031        1.5974407        1.4360227        1.6032600      -0.78119609E-01  -0.68691792
  2160.2900        1.4125857        1.6010715        1.4184992        1.6069848      -0.13936631       0.64246037E-01
  2160.3900        1.4023299        1.6045804        1.4083374        1.6105877      -0.65270402E-01   0.39411335
  2160.4900        1.3995316        1.6079683        1.4056331        1.6140697      -0.60543645E-01   0.11606881E-01
  2160.9900        1.3660037        1.6231286        1.3725753        1.6297001      -0.58306274E-01   0.88607471E-02
  2161.4900        1.3412253        1.6354127        1.3482670        1.6424541      -0.51682898E-01   0.32332439E-01
  2161.9900        1.3143208        1.6449425        1.3218325        1.6524541      -0.25973834E-01   0.10003924
  2162.4900        1.3152515        1.6518403        1.3232333        1.6598219       0.48356346E-01   0.16055120
  2162.9900        1.3626771        1.6562282        1.3711290        1.6646798       0.13457737       0.12355826
  2163.4900        1.4498289        1.6582282        1.4587508        1.6671499       0.17191461       0.78799007E-02
  2163.9900        1.5345918        1.6579625        1.5439838        1.6673544       0.14245727      -0.10055747
  2164.4900        1.5922861        1.6555533        1.6021482        1.6654152       0.71357137E-01  -0.11961831
  2164.9900        1.6059489        1.6511226        1.6162811        1.6614545       0.22838956E-01  -0.56696240E-01
  2165.4900        1.6151251        1.6447925        1.6259273        1.6555946       0.14660897E-01  -0.26940741E-02
  2165.9900        1.6206098        1.6366852        1.6318821        1.6479573       0.20144882E-01   0.42058082E-01
  2166.4900        1.6352700        1.6269229        1.6470124        1.6386650       0.56718979E-01   0.62659408E-01
  2166.9900        1.6773288        1.6156275        1.6895412        1.6278397       0.82804290E-01   0.15621371E-01
  2167.4900        1.7180743        1.6029212        1.7307568        1.6156035       0.72340350E-01  -0.21013068E-01
  2167.9900        1.7496691        1.5889262        1.7628217        1.6020786       0.61791221E-01  -0.18521316E-01
  2168.4900        1.7798655        1.5737646        1.7934882        1.5873870       0.53819034E-01  -0.23075331E-01
  2168.9900        1.8034882        1.5575584        1.8175809        1.5716509       0.38715891E-01  -0.33606711E-01
  2169.4900        1.8185814        1.5404298        1.8331442        1.5549924       0.20212322E-01  -0.34685761E-01
  2169.9900        1.8237005        1.5225010        1.8387334        1.5375336       0.40301298E-02  -0.36023924E-01
  2170.4900        1.8226115        1.5038940        1.8381145        1.5193967      -0.15811602E-01  -0.39608924E-01
  2170.9900        1.8078889        1.4847309        1.8238619        1.5007037      -0.35578794E-01  -0.46892508E-01
  2171.4900        1.7870327        1.4651340        1.8034758        1.4815768      -0.62704110E-01  -0.64480304E-01
  2171.9900        1.7451848        1.4452252        1.7620979        1.4621381      -0.10005910      -0.52490077E-01
  2172.4900        1.6869736        1.4251267        1.7043568        1.4425097      -0.11519419      -0.13782727E-01
  2172.9900        1.6299906        1.4049606        1.6478439        1.4228137      -0.11384183      -0.76775789E-02
  2173.4900        1.5731318        1.3848491        1.5914551        1.4031722      -0.12287177      -0.27654192E-01
  2173.9900        1.5071188        1.3649143        1.5259122        1.3837075      -0.14149602       0.11535891E-02
  2174.4900        1.4316358        1.3452782        1.4508992        1.3645415      -0.12171818       0.38987761E-01
  2174.9900        1.3854006        1.3260629        1.4051342        1.3457962      -0.10250826       0.57359998E-02
  2175.4900        1.3291275        1.3073564        1.3493311        1.3275598      -0.11598218       0.91967669E-02
  2175.9900        1.2694185        1.2891648        1.2900921        1.3098383      -0.93311490E-01   0.42594058E-01
  2176.4900        1.2358160        1.2714825        1.2569597        1.2926261      -0.73388119E-01   0.68789403E-02
  2176.9900        1.1960303        1.2543038        1.2176441        1.2759174      -0.86432550E-01   0.12352277E-02
  2177.4900        1.1493835        1.2376230        1.1714673        1.2597067      -0.72152892E-01   0.29446692E-01
  2177.9900        1.1238774        1.2214345        1.1464313        1.2439882      -0.56985858E-01   0.17555851E-01
  2178.4900        1.0923976        1.2057323        1.1154216        1.2287562      -0.54597041E-01   0.13324841E-01
  2178.9900        1.0692804        1.1905110        1.0927744        1.2140049      -0.43661017E-01   0.97895342E-02
  2179.4900        1.0487366        1.1757648        1.0727007        1.1997287      -0.44807507E-01   0.82348511E-03
  2179.9900        1.0244729        1.1614879        1.0489071        1.1859219      -0.42837532E-01   0.12923747E-01
  2180.4900        1.0058991        1.1476748        1.0308033        1.1725788      -0.31883760E-01   0.19146029E-01
  2180.9900       0.99258914        1.1343196        1.0179634        1.1596937      -0.23691503E-01   0.16288678E-01
  2181.4900       0.98220756        1.1214166        1.0080519        1.1472609      -0.15595082E-01   0.36808365E-02
  2181.9900       0.97699405        1.1089603        1.0033085        1.1352746      -0.20010666E-01  -0.51361334E-02
  2182.4900       0.96219689        1.0969448       0.98898139        1.1237292      -0.20731216E-01   0.63678116E-02
  2182.9900       0.95626284        1.0853645       0.98351740        1.1126190      -0.13642855E-01   0.15852088E-01
  2183.4900       0.94855403        1.0742137       0.97627867        1.1019382      -0.48791273E-02   0.12441014E-01
  2183.9900       0.95138371        1.0634866       0.97957841        1.0916812      -0.12018403E-02  -0.39470493E-02
  2184.4900       0.94735219        1.0531777       0.97601696        1.0818423      -0.88261766E-02   0.45824107E-02
  2184.9900       0.94255753        1.0432810       0.97169237        1.0724157       0.33805704E-02   0.42736038E-02
  2185.4900       0.95073276        1.0337911       0.98033767        1.0633958      -0.45525728E-02  -0.14173173E-01
  2185.9900       0.93800496        1.0247021       0.96807994        1.0547769      -0.10792602E-01   0.45433661E-03
  2186.4900       0.93994016        1.0160083       0.97048521        1.0465532      -0.40982362E-02   0.64813958E-02
  2186.9900       0.93390673        1.0077041       0.96492184        1.0387191      -0.43112065E-02   0.66375740E-02
  2187.4900       0.93562896       0.99978380       0.96711414        1.0312688       0.25393377E-02   0.25591930E-02
  2187.9900       0.93644606       0.99224163       0.96840131        1.0241967      -0.17520136E-02  -0.19238316E-02
  2188.4900       0.93387694       0.98507190       0.96630226        1.0174971       0.61550615E-03   0.75923908E-02
  2188.9900       0.93706157       0.97826893       0.96995695        1.0111642       0.58403772E-02  -0.40819305E-03
  2189.4900       0.93971732       0.97182701       0.97308277        1.0051923       0.20731310E-03  -0.80928709E-02
  2189.9900       0.93726888       0.96574043       0.97110440       0.99957582      -0.22524937E-02  -0.19948217E-02
  2190.4900       0.93746483       0.96000350       0.97177042       0.99430896      -0.17875086E-02   0.54626879E-02
  2190.9900       0.93548137       0.95461052       0.97025703       0.98938604       0.32101942E-02   0.53704008E-02
  2191.4900       0.94067502       0.94955577       0.97592075       0.98480136       0.35828922E-02  -0.77911630E-02
  2191.9900       0.93906427       0.94483356       0.97478006       0.98054923      -0.45809689E-02  -0.91222273E-03
  2192.4900       0.93609405       0.94043820       0.97227992       0.97662393       0.26706694E-02   0.52887621E-03
  2192.9900       0.94173494       0.93636397       0.97839087       0.97301977      -0.40520927E-02  -0.44688265E-02
  2193.4900       0.93204196       0.93260517       0.96916796       0.96973104      -0.17981571E-02   0.59099255E-02
  2193.9900       0.93993678       0.92915610       0.97753285       0.96675204       0.18578328E-02  -0.30809702E-02
  2194.4900       0.93389979       0.92601107       0.97196593       0.96407708      -0.48791273E-02   0.21297029E-04
  2194.9900       0.93505765       0.92316437       0.97359386       0.96170044       0.18791299E-02   0.94416828E-02
  2195.4900       0.93577892       0.92061029       0.97478520       0.95961644       0.45625555E-02  -0.40180394E-02
  2195.9900       0.93962021       0.91834314       0.97909655       0.95781935      -0.21389096E-02  -0.32477969E-02
  2196.4900       0.93364001       0.91635722       0.97358642       0.95630350       0.13147586E-02   0.59312225E-02
  2196.9900       0.94093496       0.91464681       0.98135145       0.95506316       0.37923129E-02  -0.20196682E-02
  2197.4900       0.93743232       0.91320623       0.97831887       0.95409265      -0.70490964E-03  -0.23959157E-02
  2197.9900       0.94023006       0.91202976       0.98158667       0.95338625       0.13963972E-02   0.48663711E-02
  2198.4900       0.93882872       0.91111172       0.98065541       0.95293827       0.41614614E-02   0.48060295E-02
  2198.9900       0.94439152       0.91044638       0.98668827       0.95274300       0.62024267E-02  -0.66198264E-02
  2199.4900       0.94503115       0.91002806       0.98779797       0.95279475      -0.24583650E-02   0.15546831E-02
  2199.9900       0.94193315       0.90985105       0.98517005       0.95308781       0.77571098E-02   0.13285796E-01
  2200.4900       0.95278826       0.90990965       0.99649522       0.95361648       0.10827431E-01  -0.17274257E-03
  2201.4900       0.95817430       0.91071088        1.0028214       0.95535784       0.74979960E-02  -0.20666992E-02
  2202.4900       0.96778425       0.91238612        1.0133715       0.95797322       0.66940331E-02  -0.14970036E-02
  2203.4900       0.97156236       0.91488977        1.0180897       0.96141700       0.45039887E-02  -0.14739319E-02
  2204.4900       0.97679223       0.91817620        1.0242597       0.96564357       0.37461694E-02  -0.11340668E-02
  2205.4900       0.97905470       0.92219981        1.0274624       0.97060732       0.22358551E-02  -0.93351976E-03
  2206.4900       0.98126394       0.92691498        1.0306117       0.97626263       0.18791299E-02  -0.20533885E-02
  2207.4900       0.98281296       0.93227609        1.0331009       0.98256388      -0.18709220E-02  -0.64822831E-02
  2208.4900       0.97752209       0.93823754        1.0287502       0.98946546      -0.11085436E-01  -0.35228835E-02
  2209.4900       0.96064209       0.94475370        1.0128103       0.99692177      -0.89166890E-02   0.64716346E-02
  2210.4900       0.95968872       0.95177897        1.0127971        1.0048872       0.18578328E-02   0.92420231E-02
  2211.4900       0.96435776       0.95926773        1.0184062        1.0133161       0.95673573E-02   0.45353798E-02
  2212.4900       0.97882343       0.96717436        1.0338120        1.0221628       0.10928592E-01  -0.16673799E-02
  2213.4900       0.98621494       0.97545326        1.0421437        1.0313819       0.62325975E-02  -0.15413725E-02
  2214.4900       0.99128863       0.98405880        1.0481575        1.0409275       0.78458474E-02  -0.12795965E-02
  2215.4900        1.0019066       0.99294537        1.0597157        1.0507543       0.36734045E-02  -0.25858142E-02
  2216.4900       0.99863543        1.0020674        1.0573846        1.0608164       0.26742189E-02   0.21057437E-02
  2217.4900        1.0072551        1.0113792        1.0669444        1.0710683       0.78848920E-02   0.18430804E-02
  2218.4900        1.0144052        1.0208351        1.0750347        1.0814644       0.63603797E-02  -0.10009604E-02
  2219.4900        1.0199758        1.0303897        1.0815454        1.0919591       0.58829713E-02  -0.12299034E-02
  2220.4900        1.0261712        1.0399972        1.0886809        1.1025068       0.39005728E-02   0.16043762E-02
  2221.4900        1.0277770        1.0496121        1.0912268        1.1130618       0.90917236E-02   0.36338055E-02
  2222.4900        1.0443546        1.0591887        1.1087446        1.1235785       0.11168184E-01  -0.37536013E-02
  2223.4900        1.0501133        1.0686814        1.1154435        1.1340114       0.15845210E-02  -0.40446607E-02
  2224.4900        1.0475236        1.0780446        1.1137939        1.1443148       0.30788625E-02   0.28458155E-02
  2225.4900        1.0562711        1.0872328        1.1234815        1.1544430       0.72761519E-02   0.35459553E-02
  2226.4900        1.0620760        1.0962001        1.1302265        1.1643505       0.10170773E-01   0.35681397E-02
  2227.4900        1.0766126        1.1049012        1.1457033        1.1739917       0.14412431E-01  -0.12236918E-02
  2228.4900        1.0909008        1.1132903        1.1609316        1.1833210       0.77233895E-02  -0.47829577E-02
  2229.4900        1.0920594        1.1213218        1.1630304        1.1922926       0.48465159E-02   0.14100408E-02
  2230.4900        1.1005938        1.1289502        1.1725049        1.2008611       0.10543471E-01   0.34128489E-02
  2231.4900        1.1131463        1.1361297        1.1859976        1.2089808       0.11672214E-01  -0.39044553E-03
  2232.4900        1.1239383        1.1428149        1.1977296        1.2166061       0.97625800E-02  -0.12671732E-02
  2233.4900        1.1326715        1.1489600        1.2074030        1.2236913       0.91378672E-02  -0.53597522E-03
  2234.4900        1.1422140        1.1545195        1.2178857        1.2301910       0.86906296E-02  -0.31768068E-03
  2235.4900        1.1500528        1.1594477        1.2266645        1.2360593       0.85025058E-02  -0.35495048E-05
  2236.4900        1.1592190        1.1636991        1.2367709        1.2412508       0.86835306E-02  -0.93174501E-04
  2237.4900        1.1674198        1.1672280        1.2459119        1.2457199       0.83161568E-02  -0.12600742E-03
  2238.4900        1.1758513        1.1699887        1.2552835        1.2494208       0.84315157E-02   0.11535891E-03
