# XDI/1.0 Athena/0.9.26
# Element.edge:                  K
# Element.symbol:                P
# Column.1:                      energy eV
# Column.2:                      norm
# Column.3:                      nbkg
# Column.4:                      flat
# Column.5:                      fbkg
# Column.6:                      nder
# Column.7:                      nsec
# Athena.e0:                     2154
# Athena.eshift:                 0
# Athena.rbkg:                   1.0
# Athena.importance:             1
# Athena.standard:               None
# Athena.bkg_kweight:            2
# Athena.edge_step:              0.1468691
# Athena.fixed_step:             no
# Athena.pre_edge_range:         -17.4 -7
# Athena.pre_edge_line:          -0.480038 + 0.000264697 * E
# Athena.normalization_range:    28 73.6
# Athena.post_edge_polynomial:   0.265382 - 1.31821e-005 * E + 0 * E^2 + 0 * E^3
# Athena.spline_range_energy:    0.000 85.601
# Athena.clamps:                 0 24
# Athena.spline_range_k:         0.000 4.740
# Athena.kweight:                2
# Athena.window:                 hanning
# Athena.phase_correction:       no
# Athena.k_range:                2.740 3.000
# Athena.dk:                     1
# Athena.r_range:                1 3
# Athena.dr:                     0.0
# Athena.window:                 hanning
# Athena.plot_multiplier:        1
# Athena.y_offset:               0
# ///
#------------------------
#   e         norm        nbkg        flat        fbkg        nder        nsec
  2125.4900       0.15894668       0.15894663       0.15894663       0.15894663      -0.12747389E-01  -0.20029746E-02
  2127.4900       0.13345190       0.13345186       0.13345186       0.13345186      -0.16753338E-01  -0.10701709E-02
  2129.4900       0.91933323E-01   0.91933297E-01   0.91933297E-01   0.91933297E-01  -0.17028073E-01   0.14025674E-02
  2131.4900       0.65339606E-01   0.65339588E-01   0.65339588E-01   0.65339588E-01  -0.11143069E-01   0.19572707E-02
  2133.4900       0.47361047E-01   0.47361034E-01   0.47361034E-01   0.47361034E-01  -0.91989903E-02   0.13175852E-02
  2135.4900       0.28543645E-01   0.28543637E-01   0.28543637E-01   0.28543637E-01  -0.58727281E-02   0.14198447E-02
  2137.4900       0.23870135E-01   0.23870128E-01   0.23870128E-01   0.23870128E-01  -0.35196116E-02   0.40838531E-04
  2139.4900       0.14465199E-01   0.14465195E-01   0.14465195E-01   0.14465195E-01  -0.57093740E-02  -0.36922706E-03
  2140.4900       0.67420128E-02   0.67420109E-02   0.67420109E-02   0.67420109E-02  -0.46272928E-02  -0.19539153E-02
  2140.5900       0.93751766E-02   0.93751740E-02   0.93751740E-02   0.93751740E-02  -0.78586807E-02  -0.17216325
  2140.6900       0.51702766E-02   0.51702752E-02   0.51702752E-02   0.51702752E-02  -0.39059943E-01  -0.87390769E-01
  2140.7900       0.15631881E-02   0.15631876E-02   0.15631876E-02   0.15631876E-02  -0.25336834E-01   0.16579394
  2140.8900       0.10290975E-03   0.10290971E-03   0.10290972E-03   0.10290971E-03  -0.59011548E-02   0.12368160
  2140.9900       0.38295713E-03   0.38295701E-03   0.38295702E-03   0.38295701E-03  -0.60051483E-03   0.98948683E-01
  2141.0900      -0.17193218E-04  -0.17193228E-04  -0.17193214E-04  -0.17193228E-04   0.13888582E-01  -0.30162922E-01
  2141.1900       0.31606735E-02   0.31606726E-02   0.31606726E-02   0.31606726E-02  -0.66330993E-02  -0.17129203
  2141.2900      -0.13438131E-02  -0.13438127E-02  -0.13438127E-02  -0.13438127E-02  -0.20369825E-01   0.37244060E-01
  2141.3900      -0.91329152E-03  -0.91329128E-03  -0.91329127E-03  -0.91329128E-03   0.81571266E-03   0.84088507E-02
  2141.4900      -0.11806705E-02  -0.11806702E-02  -0.11806702E-02  -0.11806702E-02  -0.18688055E-01   0.21090215E-01
  2141.5900      -0.46509025E-02  -0.46509012E-02  -0.46509012E-02  -0.46509012E-02   0.50337556E-02   0.14192914
  2141.6900      -0.17391942E-03  -0.17391938E-03  -0.17391937E-03  -0.17391938E-03   0.96977740E-02  -0.61670579E-01
  2141.7900      -0.27113477E-02  -0.27113470E-02  -0.27113469E-02  -0.27113470E-02  -0.73003603E-02   0.11915376E-01
  2141.8900      -0.16339915E-02  -0.16339910E-02  -0.16339910E-02  -0.16339910E-02   0.12080849E-01   0.95986861E-01
  2141.9900      -0.29517787E-03  -0.29517780E-03  -0.29517779E-03  -0.29517780E-03   0.11897012E-01  -0.12534975
  2142.0900       0.74541091E-03   0.74541069E-03   0.74541070E-03   0.74541069E-03  -0.12989101E-01  -0.58419384E-01
  2142.1900      -0.28929981E-02  -0.28929973E-02  -0.28929973E-02  -0.28929973E-02   0.21313510E-03   0.39269673E-01
  2142.2900       0.78803793E-03   0.78803770E-03   0.78803771E-03   0.78803770E-03  -0.51351663E-02  -0.93876137E-01
  2142.3900      -0.39200313E-02  -0.39200303E-02  -0.39200303E-02  -0.39200303E-02  -0.18562092E-01   0.81467125E-01
  2142.4900      -0.29243805E-02  -0.29243798E-02  -0.29243797E-02  -0.29243798E-02   0.11158259E-01   0.34724809E-02
  2142.5900      -0.16883796E-02  -0.16883792E-02  -0.16883791E-02  -0.16883792E-02  -0.17867596E-01  -0.19042472
  2142.6900      -0.64978998E-02  -0.64978980E-02  -0.64978980E-02  -0.64978980E-02  -0.26926686E-01   0.19769310
  2142.7900      -0.70737168E-02  -0.70737149E-02  -0.70737149E-02  -0.70737149E-02   0.21671024E-01   0.12865201
  2142.8900      -0.21636949E-02  -0.21636943E-02  -0.21636943E-02  -0.21636943E-02  -0.11962836E-02  -0.19680796
  2142.9900      -0.73129735E-02  -0.73129715E-02  -0.73129715E-02  -0.73129715E-02  -0.17690568E-01   0.23456268E-01
  2143.0900      -0.57018085E-02  -0.57018069E-02  -0.57018069E-02  -0.57018069E-02   0.34949700E-02   0.10911080
  2143.1900      -0.66139795E-02  -0.66139777E-02  -0.66139777E-02  -0.66139777E-02   0.41315915E-02   0.17532624E-02
  2143.2900      -0.48754902E-02  -0.48754889E-02  -0.48754888E-02  -0.48754889E-02   0.38456224E-02  -0.10495744
  2143.3900      -0.58448551E-02  -0.58448535E-02  -0.58448534E-02  -0.58448535E-02  -0.16859896E-01  -0.46793382E-01
  2143.4900      -0.82474694E-02  -0.82474671E-02  -0.82474671E-02  -0.82474671E-02  -0.55130540E-02   0.12945204
  2143.5900      -0.69474658E-02  -0.69474639E-02  -0.69474639E-02  -0.69474639E-02   0.90305130E-02   0.72394417E-01
  2143.6900      -0.64413668E-02  -0.64413650E-02  -0.64413650E-02  -0.64413650E-02   0.89658295E-02  -0.14843154E-01
  2143.7900      -0.51542999E-02  -0.51542985E-02  -0.51542985E-02  -0.51542985E-02   0.60618823E-02  -0.67117608E-01
  2143.8900      -0.52289903E-02  -0.52289889E-02  -0.52289889E-02  -0.52289889E-02  -0.44576921E-02   0.71849715E-01
  2143.9900      -0.60458384E-02  -0.60458367E-02  -0.60458367E-02  -0.60458367E-02   0.20431825E-01   0.99135925E-01
  2144.0900      -0.11426253E-02  -0.11426250E-02  -0.11426250E-02  -0.11426250E-02   0.15369493E-01  -0.18657776
  2144.1900      -0.29719398E-02  -0.29719390E-02  -0.29719390E-02  -0.29719390E-02  -0.16883727E-01  -0.50504170E-01
  2144.2900      -0.45193706E-02  -0.45193694E-02  -0.45193693E-02  -0.45193694E-02   0.52686587E-02   0.42265539E-01
  2144.3900      -0.19182081E-02  -0.19182075E-02  -0.19182075E-02  -0.19182075E-02  -0.84306188E-02  -0.75952008E-01
  2144.4900      -0.62054943E-02  -0.62054926E-02  -0.62054926E-02  -0.62054926E-02  -0.99217429E-02   0.17873063E-01
  2144.5900      -0.39025566E-02  -0.39025556E-02  -0.39025556E-02  -0.39025556E-02  -0.48560061E-02   0.63032337E-01
  2144.6900      -0.71766956E-02  -0.71766936E-02  -0.71766936E-02  -0.71766936E-02   0.26847244E-02   0.16518115
  2144.7900      -0.33656118E-02  -0.33656108E-02  -0.33656108E-02  -0.33656108E-02   0.28180224E-01   0.19575260E-01
  2144.8900      -0.15406508E-02  -0.15406504E-02  -0.15406504E-02  -0.15406504E-02   0.65997764E-02  -0.18002430
  2144.9900      -0.20456565E-02  -0.20456559E-02  -0.20456559E-02  -0.20456559E-02  -0.78246368E-02  -0.10264245
  2145.0900      -0.31055782E-02  -0.31055773E-02  -0.31055773E-02  -0.31055773E-02  -0.13928713E-01   0.80173456E-02
  2145.1900      -0.48313992E-02  -0.48313979E-02  -0.48313978E-02  -0.48313979E-02  -0.62211677E-02   0.75628591E-01
  2145.2900      -0.43498117E-02  -0.43498105E-02  -0.43498105E-02  -0.43498105E-02   0.11970047E-02   0.88548262E-01
  2145.3900      -0.45919982E-02  -0.45919970E-02  -0.45919970E-02  -0.45919970E-02   0.11488485E-01   0.17493474
  2145.4900      -0.20521148E-02  -0.20521142E-02  -0.20521142E-02  -0.20521142E-02   0.36183952E-01  -0.99918935E-01
  2145.5900       0.26447921E-02   0.26447914E-02   0.26447914E-02   0.26447914E-02  -0.84953022E-02  -0.16507902
  2145.6900      -0.37511752E-02  -0.37511742E-02  -0.37511742E-02  -0.37511742E-02   0.31681482E-02   0.23333710
  2145.7900       0.32784217E-02   0.32784208E-02   0.32784208E-02   0.32784208E-02   0.38172117E-01  -0.27830913E-01
  2145.8900       0.38832482E-02   0.38832471E-02   0.38832471E-02   0.38832471E-02  -0.23980343E-02  -0.21209368
  2145.9900       0.27988149E-02   0.27988141E-02   0.27988141E-02   0.27988141E-02  -0.42466198E-02  -0.31354460E-01
  2146.0900       0.30339243E-02   0.30339234E-02   0.30339234E-02   0.30339234E-02  -0.86689263E-02   0.10305098
  2146.1900       0.10650296E-02   0.10650293E-02   0.10650293E-02   0.10650293E-02   0.16363576E-01   0.16172569
  2146.2900       0.63066394E-02   0.63066376E-02   0.63066376E-02   0.63066376E-02   0.23676212E-01  -0.83628914E-01
  2146.3900       0.58002720E-02   0.58002704E-02   0.58002704E-02   0.58002704E-02  -0.36220732E-03   0.17873063E-02
  2146.4900       0.62341979E-02   0.62341962E-02   0.62341962E-02   0.62341962E-02   0.24033673E-01   0.18519898
  2146.5900       0.10607007E-01   0.10607004E-01   0.10607004E-01   0.10607004E-01   0.36677589E-01  -0.16102779
  2146.6900       0.13569716E-01   0.13569712E-01   0.13569712E-01   0.13569712E-01  -0.81718849E-02  -0.14783577
  2146.7900       0.89726296E-02   0.89726271E-02   0.89726271E-02   0.89726271E-02   0.71104353E-02   0.22690279
  2146.8900       0.14991803E-01   0.14991799E-01   0.14991799E-01   0.14991799E-01   0.37208674E-01   0.16715570E-01
  2146.9900       0.16414364E-01   0.16414360E-01   0.16414360E-01   0.16414360E-01   0.10453549E-01  -0.98080563E-01
  2147.0900       0.17082513E-01   0.17082508E-01   0.17082508E-01   0.17082508E-01   0.17592561E-01  -0.22113235
  2147.1900       0.19932877E-01   0.19932871E-01   0.19932871E-01   0.19932871E-01  -0.33772920E-01  -0.59627944E-01
  2147.2900       0.10327929E-01   0.10327926E-01   0.10327926E-01   0.10327926E-01   0.56669727E-02   0.41542106
  2147.3900       0.21066271E-01   0.21066265E-01   0.21066265E-01   0.21066265E-01   0.49311291E-01   0.11552808
  2147.4900       0.20190187E-01   0.20190181E-01   0.20190181E-01   0.20190181E-01   0.28772588E-01  -0.14468670E-01
  2147.5900       0.26820789E-01   0.26820781E-01   0.26820781E-01   0.26820781E-01   0.46417557E-01  -0.13799707
  2147.6900       0.29473698E-01   0.29473690E-01   0.29473690E-01   0.29473690E-01   0.11731739E-02  -0.96974135E-01
  2147.7900       0.27055424E-01   0.27055416E-01   0.27055416E-01   0.27055416E-01   0.27022730E-01   0.18525005
  2147.8900       0.34878244E-01   0.34878235E-01   0.34878235E-01   0.34878235E-01   0.38223183E-01  -0.70317738E-01
  2147.9900       0.34700060E-01   0.34700051E-01   0.34700051E-01   0.34700051E-01   0.12959183E-01  -0.11831968
  2148.0900       0.37470081E-01   0.37470070E-01   0.37470070E-01   0.37470070E-01   0.14559247E-01   0.11753667
  2148.1900       0.37611910E-01   0.37611899E-01   0.37611899E-01   0.37611899E-01   0.36466516E-01   0.24164382
  2148.2900       0.44763384E-01   0.44763372E-01   0.44763372E-01   0.44763372E-01   0.62888011E-01   0.23728619E-01
  2148.3900       0.50189512E-01   0.50189498E-01   0.50189498E-01   0.50189498E-01   0.41212240E-01  -0.81092642E-01
  2148.4900       0.53005832E-01   0.53005817E-01   0.53005817E-01   0.53005817E-01   0.46669482E-01   0.12415821
  2148.5900       0.59523408E-01   0.59523392E-01   0.59523392E-01   0.59523392E-01   0.66043883E-01   0.19965063
  2148.6900       0.66214609E-01   0.66214590E-01   0.66214590E-01   0.66214590E-01   0.86599608E-01  -0.37005752E-01
  2148.7900       0.76843330E-01   0.76843309E-01   0.76843309E-01   0.76843309E-01   0.58642732E-01  -0.13237982
  2148.8900       0.77943155E-01   0.77943133E-01   0.77943133E-01   0.77943133E-01   0.60123643E-01   0.18358189
  2148.9900       0.88868058E-01   0.88868034E-01   0.88868034E-01   0.88868034E-01   0.95359111E-01   0.23847773
  2149.0900       0.97014977E-01   0.97014950E-01   0.97014950E-01   0.97014950E-01   0.10781919       0.28494770
  2149.1900       0.11043190       0.11043187       0.11043187       0.11043187       0.15234865       0.84428947E-01
  2149.2900       0.12748471       0.12748467       0.12748467       0.12748467       0.12470498      -0.11064277
  2149.3900       0.13537289       0.13537285       0.13537285       0.13537285       0.13022010       0.35814215
  2149.4900       0.15352873       0.15352868       0.15352868       0.15352868       0.19633341       0.48750908
  2149.5900       0.17463957       0.17463953       0.17463953       0.17463953       0.22772191       0.18213503
  2149.6900       0.19907311       0.19907305       0.19907305       0.19907305       0.23276041       0.33720513
  2149.7900       0.22119166       0.22119160       0.22119160       0.22119160       0.29516294       0.68394256
  2149.8900       0.25810570       0.25810562       0.25810562       0.25810562       0.36954892       0.68836827
  2149.9900       0.29510144       0.29510136       0.29510136       0.29510136       0.43283659       0.71134792
  2150.0900       0.34467301       0.34467292       0.34467292       0.34467292       0.51181851       0.60683305
  2150.1900       0.39746514       0.39746503       0.39746503       0.39746503       0.55420320       0.54895837
  2150.2900       0.45551365       0.45551353       0.45551353       0.45551353       0.62161018       0.64326006
  2150.3900       0.52178718       0.52178704       0.52178704       0.52178704       0.68285521       0.78471259
  2150.4900       0.59208470       0.59208453       0.59208453       0.59208453       0.77855270        1.0836183
  2150.5900       0.67749772       0.67749753       0.67749753       0.67749753       0.89957887        1.2916267
  2150.6900       0.77200047       0.77200026       0.77200026       0.77200026        1.0368780        1.4810812
  2150.7900       0.88487333       0.88487308       0.88487308       0.88487308        1.1957951        2.0669772
  2150.8900        1.0111595        1.0111592        1.0111592        1.0111592        1.4502735        2.7298125
  2150.9900        1.1749280        1.1749277        1.1749277        1.1749277        1.7417576        3.0831885
  2151.0900        1.3595110        1.3595106        1.3595106        1.3595106        2.0669112        4.2240006
  2151.1900        1.5883103        1.5883098        1.5883098        1.5883098        2.5865577        5.0783331
  2151.2900        1.8768226        1.8768220        1.8768220        1.8768220        3.0825778        5.0502468
  2151.3900        2.2048258        2.2048252        2.2048252        2.2048252        3.5966071        5.3639616
  2151.4900        2.5961440        2.5961433        2.5961433        2.5961433        4.1553701        4.7561073
  2151.5900        3.0358999        3.0358990        3.0358990        3.0358990        4.5478286        3.2079595
  2151.6900        3.5057097        3.5057087        3.5057087        3.5057087        4.7969620       0.90863250
  2151.7900        3.9952923        3.9952912        3.9952912        3.9952912        4.7295551       -2.7076840
  2151.8900        4.4516207        4.4516195        4.4516195        4.4516195        4.2554252       -5.4322197
  2151.9900        4.8463773        4.8463760        4.8463760        4.8463760        3.6431111       -6.5966923
  2152.0900        5.1802429        5.1802415        5.1802415        5.1802415        2.9360868       -7.3075296
  2152.1900        5.4335947        5.4335932        5.4335932        5.4335932        2.1816052       -7.5015800
  2152.2900        5.6165640        5.6165624        5.6165624        5.6165624        1.4357708       -7.8641479
  2152.3900        5.7207488        5.7207472        5.7207472        5.7207472       0.60877562       -7.0751798
  2152.4900        5.7383191        5.7383175        5.7383175        5.7383175       0.20734816E-01   -5.7095075
  2152.5900        5.7248958        5.7248942        5.7248942        5.7248942      -0.53312588       -4.6934664
  2152.6900        5.6316939        5.6316924        5.6316924        5.6316924      -0.91795847       -3.3500929
  2152.7900        5.5413041        5.5413026        5.5413026        5.5413026       -1.2031445       -3.4374156
  2152.8900        5.3910650        5.3910635        5.3910635        5.3910635       -1.6054416       -3.5192913
  2152.9900        5.2202158        5.2202143        5.2202143        5.2202143       -1.9070027       -2.5779766
  2153.0900        5.0096645        5.0096631        5.0096631        5.0096631       -2.1210369       -2.3917563
  2153.1900        4.7960084        4.7960071        4.7960071        4.7960071       -2.3853540       -2.5985732
  2153.2900        4.5325937        4.5325924        4.5325924        4.5325924       -2.6407516      -0.93825071
  2153.3900        4.2678581        4.2678569        4.2678569        4.2678569       -2.5730041       0.97518838
  2153.4900        4.0179929        4.0179917        4.0179917        4.0179917       -2.4457139       0.65517544
  2153.5900        3.7787153        3.7787143        3.7787143        3.7787143       -2.4419690       0.60393932
  2153.6900        3.5295990        3.5295981        3.5295981        3.5295981       -2.3249260        1.8368403
  2153.7900        3.3137301        3.3137292        3.3137292        3.3137292       -2.0746010        1.8142010
  2153.8900        3.1146788        3.1146780        3.1146780        3.1146780       -1.9620858        1.2655831
  2153.9900        2.9213129        2.9213121        2.9212935        2.9212935       -1.8214844        1.8797356
  2154.0900        2.7503820        1.3574517        2.7505518        1.3576222       -1.5861387        2.4212043
  2154.1900        2.6040852        1.3689042        2.6044442        1.3692640       -1.3372435        2.3474992
  2154.2900        2.4829333        1.3801821        2.4834815        1.3807310       -1.1166388        1.8897786
  2154.3900        2.3807574        1.3912862        2.3814949        1.3920244      -0.95928780        1.5369132
  2154.4900        2.2910757        1.4022176        2.2920024        1.4031450      -0.80925620        1.8763312
  2154.5900        2.2189062        1.4129771        2.2200221        1.4140937      -0.58402156        2.0591471
  2154.6900        2.1742714        1.4235658        2.1755766        1.4248716      -0.39742678        1.2921374
  2154.7900        2.1394208        1.4339846        2.1409152        1.4354796      -0.32559409       0.86182209
  2154.8900        2.1091526        1.4442344        2.1108362        1.4459185      -0.22506236       0.63015315
  2154.9900        2.0944084        1.4543161        2.0962812        1.4561895      -0.19956346       0.67577201
  2155.0900        2.0692399        1.4642308        2.0713019        1.4662934      -0.89907957E-01    1.3139255
  2155.1900        2.0764268        1.4739794        2.0786780        1.4762312       0.63221641E-01   0.43559209
  2155.2900        2.0818842        1.4835628        2.0843246        1.4860038      -0.27895395E-02  -0.26213826
  2155.3900        2.0758689        1.4929820        2.0784985        1.4956121       0.10793989E-01   0.62828073
  2155.4900        2.0840430        1.5022378        2.0868618        1.5050572       0.12286661       0.35082270
  2155.5900        2.1004422        1.5113314        2.1034502        1.5143400       0.80958529E-01   0.15830428E-01
  2155.6900        2.1002347        1.5202636        2.1034319        1.5234614       0.12603269      -0.86131143E-01
  2155.7900        2.1256487        1.5290354        2.1290351        1.5324224       0.63732300E-01  -0.99680627
  2155.8900        2.1129812        1.5376477        2.1165568        1.5412239      -0.73328563E-01  -0.43048550
  2155.9900        2.1109830        1.5461014        2.1147478        1.5498668      -0.22364799E-01   0.68087860E-01
  2156.0900        2.1085082        1.5543976        2.1124622        1.5583522      -0.59710991E-01  -0.58487472
  2156.1900        2.0990408        1.5625372        2.1031840        1.5666810      -0.13933974      -0.15370834
  2156.2900        2.0806403        1.5705211        2.0849727        1.5748541      -0.90452660E-01  -0.80003236E-02
  2156.3900        2.0809503        1.5783502        2.0854719        1.5828724      -0.14093981      -0.71407143
  2156.4900        2.0524523        1.5860256        2.0571631        1.5907370      -0.23326695      -0.13413308
  2156.5900        2.0342969        1.5935481        2.0391969        1.5984487      -0.16776643       0.77620161E-01
  2156.6900        2.0188990        1.6009188        2.0239883        1.6060086      -0.21774291      -0.42640023
  2156.7900        1.9907483        1.6081385        1.9960268        1.6134176      -0.25304647      -0.41039958
  2156.8900        1.9682897        1.6152083        1.9737574        1.6206765      -0.29982283      -0.74385987E-01
  2156.9900        1.9307837        1.6221290        1.9364406        1.6277865      -0.26792367       0.12409013
  2157.0900        1.9147050        1.6289017        1.9205511        1.6347483      -0.27500481      -0.50572258
  2157.1900        1.8757828        1.6355272        1.8818181        1.6415630      -0.36906818      -0.20222095
  2157.2900        1.8408914        1.6420065        1.8471159        1.6482316      -0.31544899       0.62198260
  2157.3900        1.8126930        1.6483407        1.8191067        1.6547549      -0.24467166       0.40903782
  2157.4900        1.7919570        1.6545305        1.7985600        1.6611339      -0.23364143      -0.47865766
  2157.5900        1.7659647        1.6605770        1.7727568        1.6673696      -0.34040319      -0.18962469
  2157.6900        1.7238764        1.6664811        1.7308577        1.6734629      -0.27156637       0.56751232
  2157.7900        1.7116514        1.6722438        1.7188220        1.6794148      -0.22690073       0.43576231E-01
  2157.8900        1.6784962        1.6778660        1.6858560        1.6852262      -0.26285112       0.95663444E-01
  2157.9900        1.6590812        1.6833486        1.6666302        1.6908981      -0.20776804       0.13668638
  2158.0900        1.6369426        1.6886927        1.6446808        1.6964313      -0.23551385      -0.23030719
  2158.1900        1.6119784        1.6938991        1.6199058        1.7018270      -0.25382948       0.26622353
  2158.2900        1.5861767        1.6989689        1.5942933        1.7070859      -0.18226914       0.12034529
  2158.3900        1.5755246        1.7039029        1.5838304        1.7122092      -0.22976042      -0.55866089
  2158.4900        1.5402247        1.7087022        1.5487197        1.7171976      -0.29400132       0.31235306
  2158.5900        1.5167243        1.7133676        1.5254086        1.7220522      -0.16728981       0.63611083
  2158.6900        1.5067667        1.7179001        1.5156401        1.7267739      -0.16677915      -0.21277456
  2158.7900        1.4833685        1.7223007        1.4924311        1.7313637      -0.20984472      -0.15796384
  2158.8900        1.4647977        1.7265703        1.4740496        1.7358225      -0.19837192       0.29958659
  2158.9900        1.4436941        1.7307098        1.4531352        1.7401513      -0.14992741       0.34724809
  2159.0900        1.4348123        1.7347203        1.4444425        1.7443510      -0.12892230       0.44767768E-01
  2159.1900        1.4179097        1.7386026        1.4277291        1.7484225      -0.14097385       0.38027070
  2159.2900        1.4066175        1.7423578        1.4166262        1.7523668      -0.52868161E-01   0.23541378
  2159.3900        1.4073360        1.7459867        1.4175339        1.7561849      -0.93891097E-01  -0.43797516
  2159.4900        1.3878393        1.7494903        1.3982264        1.7598778      -0.14046319      -0.10911080
  2159.5900        1.3792434        1.7528696        1.3898197        1.7634462      -0.11571326       0.22792411
  2159.6900        1.3646966        1.7561255        1.3754621        1.7668913      -0.94878371E-01   0.19507172
  2159.7900        1.3602677        1.7592589        1.3712224        1.7702140      -0.76698912E-01   0.77790380E-01
  2159.8900        1.3493568        1.7622709        1.3605007        1.7734152      -0.79320295E-01  -0.11030233
  2159.9900        1.3444037        1.7651623        1.3557368        1.7764958      -0.98759379E-01  -0.92259051E-01
  2160.0900        1.3296050        1.7679341        1.3411273        1.7794568      -0.97772105E-01   0.16800680
  2160.1900        1.3248492        1.7705873        1.3365607        1.7822992      -0.65158020E-01   0.20800841
  2160.2900        1.3165734        1.7731228        1.3284741        1.7850239      -0.56170422E-01  -0.30350164
  2160.3900        1.3136152        1.7755416        1.3257051        1.7876318      -0.12585835      -0.12942367
  2160.4900        1.2914017        1.7778445        1.3036808        1.7901240      -0.82055157E-01   0.12140065
  2160.9900        1.2643821        1.7876557        1.2776072        1.8008812      -0.53017954E-01   0.46134065E-01
  2161.4900        1.2383837        1.7947145        1.2525549        1.8088860      -0.35921092E-01   0.78294231E-01
  2161.9900        1.2284610        1.7991397        1.2435781        1.8142572       0.25276276E-01   0.12223133
  2162.4900        1.2636600        1.8010499        1.2797232        1.8171134       0.86310234E-01   0.11916737
  2162.9900        1.3147712        1.8005638        1.3317804        1.8175734       0.14444365       0.13686341
  2163.4900        1.4081037        1.7978003        1.4260588        1.8157558       0.22317364       0.13333646
  2163.9900        1.5379448        1.7928779        1.5568460        1.8117794       0.27778011       0.89848740E-01
  2164.4900        1.6858838        1.7859154        1.7057309        1.8057629       0.31302238       0.39695223E-02
  2164.9900        1.8509672        1.7770315        1.8717603        1.7978250       0.28174963      -0.95295769E-01
  2165.4900        1.9676334        1.7663448        1.9893724        1.7880844       0.21772661      -0.13339093
  2165.9900        2.0686938        1.7539742        2.0913788        1.7766598       0.14835870      -0.15332024
  2166.4900        2.1159921        1.7400383        2.1396231        1.7636699       0.64406370E-01  -0.13834772
  2166.9900        2.1331002        1.7246557        2.1576772        1.7492333       0.10010978E-01  -0.91857332E-01
  2167.4900        2.1260031        1.7079453        2.1515261        1.7334689      -0.27450963E-01  -0.75516246E-01
  2167.9900        2.1056492        1.6900258        2.1321183        1.7164954      -0.65505268E-01  -0.76169889E-01
  2168.4900        2.0604978        1.6710157        2.0879129        1.6984313      -0.10362085      -0.44958414E-01
  2168.9900        2.0020284        1.6510339        2.0303895        1.6793955      -0.11046368      -0.10574045E-01
  2169.4900        1.9500341        1.6301990        1.9793412        1.6595066      -0.11419490       0.47661502E-02
  2169.9900        1.8878335        1.6086298        1.9180866        1.6388834      -0.10569753       0.39831398E-01
  2170.4900        1.8443366        1.5864449        1.8755358        1.6176446      -0.74363498E-01   0.44638401E-01
  2170.9900        1.8134700        1.5637631        1.8456152        1.5959087      -0.61059130E-01  -0.10914484E-01
  2171.4900        1.7832775        1.5407030        1.8163687        1.5737947      -0.85277982E-01  -0.57391257E-01
  2171.9900        1.7281920        1.5173834        1.7622292        1.5514211      -0.11845039      -0.40369292E-01
  2172.4900        1.6648271        1.4939230        1.6998103        1.5289067      -0.12564727      -0.18315634E-02
  2172.9900        1.6025447        1.4704405        1.6384740        1.5063702      -0.12028195       0.55151167E-03
  2173.4900        1.5445451        1.4470546        1.5814204        1.4839303      -0.12509576      -0.11370673E-01
  2173.9900        1.4774490        1.4238839        1.5152703        1.4617057      -0.13165262      -0.46980624E-03
  2174.4900        1.4128925        1.4010473        1.4516599        1.4398150      -0.12556557       0.10288076E-01
  2174.9900        1.3518834        1.3786633        1.3915968        1.4183770      -0.12136455       0.29536514E-01
  2175.4900        1.2915280        1.3568172        1.3321874        1.3974770      -0.96029055E-01   0.30196966E-01
  2175.9900        1.2558544        1.3355151        1.2974598        1.3771208      -0.91167582E-01   0.11166409E-02
  2176.4900        1.2003604        1.3147510        1.2429118        1.3573027      -0.94912415E-01   0.22897947E-01
  2176.9900        1.1609419        1.2945191        1.2044394        1.3380169      -0.68269635E-01   0.28882870E-01
  2177.4900        1.1320907        1.2748137        1.1765342        1.3192575      -0.66029544E-01   0.11540892E-01
  2177.9900        1.0949124        1.2556289        1.1403019        1.3010187      -0.56728742E-01   0.30598684E-01
  2178.4900        1.0753620        1.2369589        1.1216975        1.2832947      -0.35430860E-01   0.24804408E-01
  2178.9900        1.0594815        1.2187979        1.1067631        1.2660797      -0.31924335E-01   0.97978431E-02
  2179.4900        1.0434377        1.2011401        1.0916652        1.2493679      -0.25633017E-01   0.17294317E-01
  2179.9900        1.0338485        1.1839797        1.0830221        1.2331535      -0.14630018E-01   0.74828558E-02
  2180.4900        1.0288076        1.1673109        1.0789272        1.2174307      -0.18150161E-01  -0.19268864E-02
  2180.9900        1.0156984        1.1511278        1.0667639        1.2021937      -0.16556905E-01   0.62436568E-02
  2181.4900        1.0122507        1.1354247        1.0642623        1.1874366      -0.11906504E-01   0.12221771E-01
  2181.9900        1.0037919        1.1201958        1.0567495        1.1731537      -0.43351340E-02  -0.41942122E-02
  2182.4900        1.0079156        1.1054352        1.0618192        1.1593391      -0.16100716E-01  -0.12875414E-01
  2182.9900       0.98769114        1.0911372        1.0425408        1.1459871      -0.17210548E-01   0.16695143E-01
  2183.4900       0.99070506        1.0772958        1.0465007        1.1330917       0.59442711E-03   0.15054226E-01
  2183.9900       0.98828557        1.0639054        1.0450272        1.1206473      -0.21563224E-02  -0.88037603E-02
  2184.4900       0.98854874        1.0509601        1.0462364        1.1086480      -0.82093332E-02  -0.11976655E-01
  2184.9900       0.98007623        1.0384540        1.0387099        1.0970880      -0.14132977E-01   0.13726513E-01
  2185.4900       0.97441576        1.0263815        1.0339954        1.0859614       0.55171794E-02   0.12303476E-01
  2185.9900       0.98559341        1.0147366        1.0461191        1.0752626      -0.18295007E-02  -0.18778632E-01
  2186.4900       0.97258626        1.0035136        1.0340580        1.0649856      -0.13261452E-01  -0.45755042E-02
  2186.9900       0.97233196       0.99270666        1.0347497        1.0551246      -0.64050049E-02   0.29958659E-02
  2187.4900       0.96618125       0.98230995        1.0295450        1.0456739      -0.10265587E-01  -0.36086566E-03
  2187.9900       0.96206637       0.97231769        1.0263761        1.0366277      -0.67658706E-02   0.10580853E-01
  2188.4900       0.95941538       0.96272405        1.0246711        1.0279801       0.31526689E-03   0.36563181E-02
  2188.9900       0.96238164       0.95352324        1.0285834        1.0197253      -0.31095525E-02  -0.15347004E-01
  2189.4900       0.95630583       0.94470943        1.0234536        1.0118575      -0.15031737E-01  -0.20331035E-01
  2189.9900       0.94734990       0.93627682        1.0154437        1.0043709      -0.23440588E-01  -0.10757882E-02
  2190.4900       0.93286524       0.92821960        1.0019050       0.99725965      -0.16107525E-01   0.15925751E-01
  2190.9900       0.93124238       0.92053197        1.0012282       0.99051802      -0.75148370E-02   0.71151814E-02
  2191.4900       0.92535040       0.91320810       0.99628221       0.98414017      -0.89923436E-02   0.18315634E-02
  2191.9900       0.92225003       0.90624220       0.99412785       0.97812027      -0.56832736E-02   0.65704785E-02
  2192.4900       0.91966713       0.89962845       0.99249096       0.97245253      -0.24218651E-02  -0.12991164E-01
  2192.9900       0.91982817       0.89336104       0.99359801       0.96713113      -0.18674437E-01  -0.10219988E-01
  2193.4900       0.90099269       0.88743417       0.97570855       0.96215027      -0.12641853E-01   0.22271539E-01
  2193.9900       0.90718632       0.88184202       0.98284818       0.95750413       0.35971018E-02  -0.17634756E-02
  2194.4900       0.90458980       0.87657879       0.98119767       0.95318691      -0.14405329E-01  -0.10063386E-01
  2194.9900       0.89278099       0.87163866       0.97033487       0.94919279      -0.64662840E-02   0.18295208E-01
  2195.4900       0.89812351       0.86701583       0.97662340       0.94551597       0.38898796E-02   0.28733077E-02
  2195.9900       0.89667087       0.86270448       0.97611677       0.94215063      -0.35929763E-02  -0.88582306E-02
  2196.4900       0.89453054       0.85869881       0.97492245       0.93909097      -0.49683511E-02   0.12255815E-01
  2196.9900       0.89170252       0.85499301       0.97304044       0.93633118       0.86628386E-02   0.42350649E-02
  2197.4900       0.90319337       0.85158127       0.98547730       0.93386545      -0.73328616E-03  -0.21658748E-01
  2197.9900       0.89096923       0.84845778       0.97419917       0.93168796      -0.12995910E-01   0.98727397E-03
  2198.4900       0.89019746       0.84561673       0.97437341       0.92979292       0.25398781E-03   0.11751965E-01
  2198.9900       0.89122322       0.84305230       0.97634518       0.92817451      -0.12439451E-02  -0.22945609E-02
  2199.4900       0.88895352       0.84075870       0.97502149       0.92682691      -0.20405731E-02  -0.74896646E-04
  2199.9900       0.88918264       0.83873011       0.97619662       0.92574433      -0.13188418E-02  -0.70652503E-02
  2200.4900       0.88763468       0.83696072       0.97559466       0.92492095      -0.91058234E-02  -0.63321710E-02
  2201.4900       0.87552391       0.83417631       0.96537592       0.92402856      -0.10817098E-01  -0.11092647E-02
  2202.4900       0.86600048       0.83235899       0.95774451       0.92410326      -0.11324353E-01   0.28716055E-02
  2203.4900       0.85287520       0.83146230       0.94651126       0.92509858      -0.50738873E-02   0.62300392E-02
  2204.4900       0.85585271       0.83143974       0.95138078       0.92696805       0.11357256E-02   0.78471259E-03
  2205.4900       0.85514666       0.83224486       0.95256675       0.92966518      -0.35044621E-02  -0.50487148E-02
  2206.4900       0.84884378       0.83383116       0.94815589       0.93314351      -0.89617041E-02  -0.51304203E-02
  2207.4900       0.83722325       0.83615219       0.93842738       0.93735655      -0.13765303E-01   0.23149873E-03
  2208.4900       0.82131318       0.83916145       0.92440933       0.94225783      -0.84987066E-02   0.57449132E-02
  2209.4900       0.82022583       0.84281248       0.92521401       0.94780089      -0.22754762E-02   0.34724809E-02
  2210.4900       0.81676222       0.84705881       0.92364242       0.95393923      -0.15537449E-02   0.35201424E-02
  2211.4900       0.81711834       0.85185394       0.92589056       0.96062638       0.47648086E-02   0.23847773E-02
  2212.4900       0.82629184       0.85715142       0.93695607       0.96781588       0.32158097E-02  -0.30622515E-02
  2213.4900       0.82354996       0.86290476       0.93610621       0.97546124      -0.13596945E-02   0.18690118E-02
  2214.4900       0.82357245       0.86906750       0.93802072       0.98351599       0.69538333E-02   0.56393770E-02
  2215.4900       0.83745763       0.87559314       0.95379791       0.99193366       0.99190596E-02  -0.16851745E-03
  2216.4900       0.84341057       0.88243523       0.96164287        1.0006678       0.66167984E-02  -0.55151167E-03
  2217.4900       0.85069123       0.88954727       0.97081555        1.0096718       0.88160362E-02   0.47610436E-02
  2218.4900       0.86104264       0.89688281       0.98305898        1.0188994       0.16138886E-01   0.48716864E-02
  2219.4900       0.88296900       0.90439535        1.0068773        1.0283039       0.18559409E-01  -0.11540892E-02
  2220.4900       0.89816146       0.91203844        1.0239618        1.0378390       0.13830707E-01  -0.27030881E-02
  2221.4900       0.91063041       0.91976558        1.0383228        1.0474582       0.13153233E-01   0.11779200E-02
  2222.4900       0.92446793       0.92753031        1.0540523        1.0571150       0.16186547E-01   0.28699033E-02
  2223.4900       0.94300351       0.93528615        1.0744799        1.0667628       0.18893040E-01   0.17175163E-02
  2224.4900       0.96225401       0.94298663        1.0956224        1.0763553       0.19621580E-01   0.19234821E-03
  2225.4900       0.98224667       0.95058526        1.1175071        1.0858460       0.19277736E-01  -0.28120286E-02
  2226.4900        1.0008095       0.95803558        1.1379619        1.0951883       0.13997522E-01  -0.58266186E-02
  2227.4900        1.0102417       0.96529111        1.1492862        1.1043358       0.76244987E-02  -0.24511630E-03
  2228.4900        1.0160585       0.97230537        1.1569950        1.1132421       0.13507290E-01   0.61789733E-03
  2229.4900        1.0372563       0.97903189        1.1800848        1.1218607       0.88602934E-02  -0.80411763E-02
  2230.4900        1.0337791       0.98542419        1.1784996        1.1301450      -0.25750628E-02  -0.71628429E-02
  2231.4900        1.0321062       0.99143580        1.1787187        1.1380486      -0.54653925E-02  -0.10536596E-02
  2232.4900        1.0228483       0.99702024        1.1713528        1.1455251      -0.46823821E-02   0.32171514E-02
  2233.4900        1.0227414        1.0021310        1.1731380        1.1525279       0.96891035E-03   0.35490797E-02
  2234.4900        1.0247861        1.0067217        1.1770747        1.1590106       0.24157774E-02  -0.25141442E-02
  2235.4900        1.0275730        1.0107458        1.1817536        1.1649267      -0.40593781E-02  -0.44171999E-02
  2236.4900        1.0166673        1.0141568        1.1727400        1.1702297      -0.64186225E-02   0.76598843E-04
  2237.4900        1.0147357        1.0169083        1.1727004        1.1748732      -0.39061805E-02   0.26894705E-03
  2238.4900        1.0088550        1.0189537        1.1687117        1.1788107      -0.58807284E-02  -0.19745479E-02
