# XDI/1.0 Athena/0.9.26
# Element.edge:                  K
# Element.symbol:                P
# Column.1:                      energy eV
# Column.2:                      data
# Column.3:                      fit
# Column.4:                      residual
# Column.5:                      Pi_Apatite_CaDefHydroxy_std.xmu
# Column.6:                      Pi_Ca_Tri_std.xmu
# Column.7:                      Pi_Mg_Tri_std.xmu
# Athena.e0:                     2154
# Athena.eshift:                 0
# Athena.rbkg:                   1.0
# Athena.importance:             1
# Athena.standard:               None
# Athena.bkg_kweight:            2
# Athena.edge_step:              0.5537662
# Athena.fixed_step:             no
# Athena.pre_edge_range:         -25 -10
# Athena.pre_edge_line:          3.597144 - 0.00158161 * E
# Athena.normalization_range:    42 65
# Athena.post_edge_polynomial:   0.161356 + 0.000270554 * E + 0 * E^2 + 0 * E^3
# Athena.spline_range_energy:    0.000 86.616
# Athena.clamps:                 0 24
# Athena.spline_range_k:         0.000 4.768
# Athena.kweight:                2
# Athena.window:                 hanning
# Athena.phase_correction:       no
# Athena.k_range:                2.768 3.000
# Athena.dk:                     1
# Athena.r_range:                1 3
# Athena.dr:                     0.0
# Athena.window:                 hanning
# Athena.plot_multiplier:        1
# Athena.y_offset:               0
# ///
# LCF fit of BSLE_0050-solid_P-XANES.xmu as flattened mu(E) from 2144 to 2184
# Fit included 212 data points and 3 variables, and approximately 85.792 measurements
# Weights sum to 1: no
# Weights forced between 0 and 1: yes
# Overall e0 shift used: no
# Noise added to data: 0
# R-factor = 0.0009221
# Chi-square = 0.52055
# Reduced chi-square = 0.0024788
# .    standard             weight           e0
# ========================================================
# .   Pi_Apatite_CaDefHydroxy_std.xmu  0.211 (0.009)    0.000 (0.000)
# .   Pi_Ca_Tri_std.xmu     0.396 (0.015)    0.000 (0.000)
# .   Pi_Mg_Tri_std.xmu     0.400 (0.005)    0.000 (0.000)
# .         sum ........... 1.007
#------------------------
#  energy data fit residual Pi_Mg_Tri_std.xmu Pi_Ca_Tri_std.xmu Pi_Apatite_CaDefHydroxy_std.xmu
  2125.4600       0.11020563E-01   0.78528149E-01   0.67507586E-01   0.69880249E-02   0.56906819E-01   0.14633305E-01
  2127.4600       0.70264840E-02   0.68487062E-01   0.61460578E-01   0.10199296E-01   0.47991817E-01   0.10295949E-01
  2129.4600       0.39930994E-02   0.54827395E-01   0.50834296E-01   0.83216943E-02   0.39812552E-01   0.66931487E-02
  2131.4600       0.92359843E-03   0.33540260E-01   0.32616661E-01   0.79079116E-02   0.18520443E-01   0.71119050E-02
  2133.4600      -0.14866973E-03   0.28938456E-01   0.29087126E-01   0.92780552E-02   0.90801612E-02   0.10580239E-01
  2135.4600       0.19861918E-02   0.19728021E-01   0.17741829E-01   0.89726956E-02   0.47040519E-02   0.60512733E-02
  2137.4600      -0.48339895E-02   0.63986679E-02   0.11232657E-01   0.37825037E-02  -0.56051546E-04   0.26722157E-02
  2139.4600      -0.17131523E-02  -0.58864988E-03   0.11245025E-02   0.89567841E-03   0.50192085E-05  -0.14893475E-02
  2140.4600      -0.30682241E-02  -0.10651765E-01  -0.75835412E-02  -0.56795228E-04  -0.68106298E-02  -0.37843403E-02
  2140.6600      -0.15796511E-02  -0.49708291E-02  -0.33911780E-02  -0.86164243E-03  -0.83153177E-03  -0.32776549E-02
  2140.7600      -0.35639529E-02  -0.72473331E-02  -0.36833801E-02  -0.14614116E-02  -0.27964589E-02  -0.29894626E-02
  2140.8600       0.13878854E-02  -0.89007872E-02  -0.10288673E-01  -0.17486177E-02  -0.38241063E-02  -0.33280633E-02
  2140.9600      -0.30234335E-02  -0.75363419E-02  -0.45129084E-02  -0.23633836E-02  -0.21608685E-02  -0.30120897E-02
  2141.0600      -0.16128008E-02  -0.93191914E-02  -0.77063906E-02  -0.18053283E-02  -0.34666725E-02  -0.40471906E-02
  2141.1600      -0.37704610E-02  -0.71178166E-02  -0.33473557E-02  -0.13819549E-02  -0.20315251E-02  -0.37043366E-02
  2141.2600      -0.19284878E-03  -0.80556442E-02  -0.78627954E-02  -0.20580668E-02  -0.28818943E-02  -0.31156830E-02
  2141.3600       0.64714598E-03  -0.86115935E-02  -0.92587394E-02  -0.16812018E-02  -0.35904813E-02  -0.33399104E-02
  2141.4600       0.20631961E-02  -0.91241291E-02  -0.11187325E-01  -0.18953482E-02  -0.28841744E-02  -0.43446065E-02
  2141.5600       0.60619262E-03  -0.98831114E-02  -0.10489304E-01  -0.11491063E-02  -0.52408211E-02  -0.34931840E-02
  2141.6600      -0.14015848E-02  -0.62143852E-02  -0.48128004E-02  -0.10314529E-02  -0.25821063E-02  -0.26008260E-02
  2141.7600       0.10239166E-02  -0.81429214E-02  -0.91668380E-02  -0.72204796E-03  -0.38926092E-02  -0.35282643E-02
  2141.8600      -0.33910139E-02  -0.95165119E-02  -0.61254980E-02  -0.14221917E-02  -0.40173177E-02  -0.40770025E-02
  2141.9600      -0.18702264E-02  -0.84273113E-02  -0.65570849E-02  -0.11708841E-02  -0.40098011E-02  -0.32466262E-02
  2142.0600      -0.85867914E-03  -0.72457137E-02  -0.63870346E-02  -0.90461390E-03  -0.41988228E-02  -0.21422770E-02
  2142.1600       0.29191602E-03  -0.50391396E-02  -0.53310556E-02  -0.91099798E-03  -0.22488572E-02  -0.18792843E-02
  2142.2600       0.17838104E-02  -0.79789288E-02  -0.97627393E-02  -0.14147855E-02  -0.38652735E-02  -0.26988698E-02
  2142.3600       0.15240631E-02  -0.56771873E-02  -0.72012504E-02  -0.81679845E-03  -0.27087061E-02  -0.21516828E-02
  2142.4600       0.14015578E-02  -0.47873360E-02  -0.61888938E-02  -0.54804811E-03  -0.21199167E-02  -0.21193712E-02
  2142.5600      -0.20707366E-02  -0.59153455E-02  -0.38446089E-02  -0.85726717E-03  -0.28262392E-02  -0.22318392E-02
  2142.6600      -0.18447194E-02  -0.55607671E-02  -0.37160477E-02  -0.11614870E-02  -0.22044840E-02  -0.21947961E-02
  2142.7600      -0.23518635E-02  -0.46984756E-02  -0.23466121E-02  -0.49499181E-03  -0.18234437E-02  -0.23800401E-02
  2142.8600      -0.66494096E-03  -0.43384140E-02  -0.36734730E-02  -0.12319050E-02  -0.38203024E-03  -0.27244787E-02
  2142.9600      -0.99430267E-04  -0.26200508E-02  -0.25206205E-02  -0.85642698E-03   0.95951024E-03  -0.27231341E-02
  2143.0600       0.77306919E-03  -0.28720153E-02  -0.36450844E-02  -0.19451194E-02   0.11273935E-02  -0.20542894E-02
  2143.1600       0.36807235E-02  -0.33727188E-02  -0.70534423E-02  -0.17390753E-02   0.46203476E-03  -0.20956782E-02
  2143.2600       0.34823740E-02  -0.55952290E-02  -0.90776030E-02  -0.19563822E-02  -0.13219490E-02  -0.23168977E-02
  2143.3600       0.76671654E-03  -0.37253157E-02  -0.44920322E-02  -0.16608345E-02  -0.10203249E-02  -0.10441563E-02
  2143.4600       0.18011647E-03  -0.50042485E-02  -0.51843650E-02  -0.15604321E-02  -0.13511100E-02  -0.20927065E-02
  2143.5600       0.34489341E-02  -0.59987791E-02  -0.94477132E-02  -0.29061239E-02  -0.60213987E-03  -0.24905154E-02
  2143.6600       0.45337514E-03  -0.57878939E-02  -0.62412690E-02  -0.31543534E-02  -0.94690729E-03  -0.16866333E-02
  2143.7600      -0.76345481E-03  -0.58517586E-02  -0.50883038E-02  -0.19443990E-02  -0.22971116E-02  -0.16102480E-02
  2143.8600       0.27202549E-02  -0.51323884E-02  -0.78526434E-02  -0.17590469E-02  -0.19534331E-02  -0.14199084E-02
  2143.9600       0.56856954E-02  -0.58881541E-02  -0.11573850E-01  -0.21120608E-02  -0.15812817E-02  -0.21948116E-02
  2144.0600       0.47325146E-02  -0.71480559E-02  -0.11880571E-01  -0.20088654E-02  -0.24846823E-02  -0.26545082E-02
  2144.1600       0.20674201E-02  -0.58994407E-02  -0.79668608E-02  -0.19353382E-02  -0.24250600E-02  -0.15390425E-02
  2144.2600       0.61019038E-02  -0.62478484E-02  -0.12349752E-01  -0.17400519E-02  -0.24782756E-02  -0.20295209E-02
  2144.3600       0.51848393E-02  -0.51742275E-02  -0.10359067E-01  -0.18611988E-02  -0.19792443E-02  -0.13337844E-02
  2144.4600       0.51797121E-02  -0.55465879E-02  -0.10726300E-01  -0.20271977E-02  -0.28974275E-02  -0.62196274E-03
  2144.5600       0.58174554E-02  -0.43116029E-02  -0.10129058E-01  -0.19470792E-02  -0.19759817E-02  -0.38854197E-03
  2144.6600       0.81707242E-02  -0.53485398E-02  -0.13519264E-01  -0.15916040E-02  -0.30368443E-02  -0.72009150E-03
  2144.7600       0.67859534E-02  -0.40648343E-02  -0.10850788E-01  -0.94258887E-03  -0.30095801E-02  -0.11266533E-03
  2144.8600       0.10303974E-01  -0.13465001E-02  -0.11650474E-01  -0.13719356E-02  -0.15658592E-02   0.15912948E-02
  2144.9600       0.26042633E-02  -0.24531448E-02  -0.50574081E-02  -0.18934162E-02  -0.10251150E-02   0.46538641E-03
  2145.0600       0.85312425E-02  -0.33567642E-02  -0.11888007E-01  -0.19084071E-02  -0.19732686E-02   0.52491149E-03
  2145.1600       0.60322830E-02  -0.27581273E-02  -0.87904103E-02  -0.13026704E-02  -0.30167495E-02   0.15612926E-02
  2145.2600       0.64912505E-02  -0.12599757E-02  -0.77512262E-02  -0.10285215E-02  -0.10681099E-02   0.83665577E-03
  2145.3600       0.96553308E-02   0.86894395E-03  -0.87863868E-02  -0.79610662E-03  -0.15922530E-03   0.18242759E-02
  2145.4600       0.95328255E-02   0.17321930E-02  -0.78006325E-02  -0.94071475E-04  -0.34690290E-03   0.21731674E-02
  2145.5600       0.13040011E-01   0.36259184E-02  -0.94140924E-02   0.85186270E-03   0.11745590E-03   0.26565998E-02
  2145.6600       0.11769006E-01   0.55030016E-02  -0.62660048E-02   0.88016095E-03   0.12745618E-02   0.33482788E-02
  2145.7600       0.13228396E-01   0.44249406E-02  -0.88034556E-02   0.67839133E-03   0.12884288E-02   0.24581204E-02
  2145.8600       0.16535136E-01   0.65200898E-02  -0.10015046E-01   0.11317044E-02   0.31796542E-02   0.22087311E-02
  2145.9600       0.12398301E-01   0.64309870E-02  -0.59673141E-02   0.11073219E-02   0.29086459E-02   0.24150193E-02
  2146.0600       0.15681565E-01   0.91748605E-02  -0.65067047E-02   0.16223637E-02   0.42740417E-02   0.32784551E-02
  2146.1600       0.14415978E-01   0.10102259E-01  -0.43137188E-02   0.18505084E-02   0.41367246E-02   0.41150265E-02
  2146.2600       0.16297929E-01   0.10934704E-01  -0.53632252E-02   0.22888309E-02   0.50672550E-02   0.35786179E-02
  2146.3600       0.20760391E-01   0.13892809E-01  -0.68675822E-02   0.33558952E-02   0.63552126E-02   0.41817012E-02
  2146.4600       0.23785424E-01   0.15449886E-01  -0.83355371E-02   0.45159446E-02   0.68646854E-02   0.40692565E-02
  2146.5600       0.22355507E-01   0.17003714E-01  -0.53517937E-02   0.54666214E-02   0.66150828E-02   0.49220094E-02
  2146.6600       0.26066750E-01   0.20049300E-01  -0.60174495E-02   0.58917978E-02   0.85379236E-02   0.56195790E-02
  2146.7600       0.27385286E-01   0.20613158E-01  -0.67721282E-02   0.56691234E-02   0.84478709E-02   0.64961635E-02
  2146.8600       0.26475445E-01   0.21141645E-01  -0.53337998E-02   0.69002267E-02   0.70500924E-02   0.71913259E-02
  2146.9600       0.29263915E-01   0.24083543E-01  -0.51803726E-02   0.70231718E-02   0.10598621E-01   0.64617501E-02
  2147.0600       0.29280458E-01   0.24455957E-01  -0.48245009E-02   0.79173238E-02   0.91780707E-02   0.73605623E-02
  2147.1600       0.34434548E-01   0.28044939E-01  -0.63896082E-02   0.87499318E-02   0.97783530E-02   0.95166546E-02
  2147.2600       0.37515560E-01   0.32972347E-01  -0.45432128E-02   0.10830031E-01   0.12544071E-01   0.95982454E-02
  2147.3600       0.39153726E-01   0.37181429E-01  -0.19722967E-02   0.11366594E-01   0.15808963E-01   0.10005872E-01
  2147.4600       0.40927328E-01   0.36853276E-01  -0.40740517E-02   0.11672848E-01   0.14571808E-01   0.10608620E-01
  2147.5600       0.40272107E-01   0.42061579E-01   0.17894723E-02   0.13391360E-01   0.16851929E-01   0.11818290E-01
  2147.6600       0.45834311E-01   0.45632886E-01  -0.20142488E-03   0.14580690E-01   0.18052122E-01   0.13000075E-01
  2147.7600       0.49870600E-01   0.49464944E-01  -0.40565670E-03   0.14941301E-01   0.20113671E-01   0.14409971E-01
  2147.8600       0.53814793E-01   0.50796047E-01  -0.30187459E-02   0.15864052E-01   0.19865165E-01   0.15066830E-01
  2147.9600       0.56321556E-01   0.52022260E-01  -0.42992961E-02   0.17846064E-01   0.19118906E-01   0.15057291E-01
  2148.0600       0.56515069E-01   0.56697670E-01   0.18260077E-03   0.18806323E-01   0.19898949E-01   0.17992398E-01
  2148.1600       0.64125069E-01   0.60622242E-01  -0.35028268E-02   0.20203646E-01   0.21478359E-01   0.18940237E-01
  2148.2600       0.66068417E-01   0.62465675E-01  -0.36027420E-02   0.22782664E-01   0.20459459E-01   0.19223552E-01
  2148.3600       0.73093333E-01   0.65451579E-01  -0.76417536E-02   0.23824245E-01   0.21302573E-01   0.20324762E-01
  2148.4600       0.80287995E-01   0.68987137E-01  -0.11300857E-01   0.25474338E-01   0.21437445E-01   0.22075354E-01
  2148.5600       0.83036737E-01   0.72310557E-01  -0.10726180E-01   0.26570032E-01   0.21198301E-01   0.24542224E-01
  2148.6600       0.90756892E-01   0.76944156E-01  -0.13812736E-01   0.29924599E-01   0.20790584E-01   0.26228972E-01
  2148.7600       0.96378688E-01   0.84865188E-01  -0.11513501E-01   0.32893204E-01   0.23570877E-01   0.28401107E-01
  2148.8600       0.10287631       0.89999746E-01  -0.12876559E-01   0.33983279E-01   0.24573470E-01   0.31442998E-01
  2148.9600       0.11136032       0.99394640E-01  -0.11965680E-01   0.38848497E-01   0.27157651E-01   0.33388491E-01
  2149.0600       0.12244471       0.10605237      -0.16392341E-01   0.41420130E-01   0.28708807E-01   0.35923432E-01
  2149.1600       0.12572436       0.11594601      -0.97783559E-02   0.45078749E-01   0.31541713E-01   0.39325545E-01
  2149.2600       0.13912742       0.12623731      -0.12890112E-01   0.49796679E-01   0.33827537E-01   0.42613094E-01
  2149.3600       0.14667422       0.14190648      -0.47677377E-02   0.54655986E-01   0.40770206E-01   0.46480288E-01
  2149.4600       0.16049623       0.15698904      -0.35071884E-02   0.61442548E-01   0.44535151E-01   0.51011338E-01
  2149.5600       0.18073249       0.17203214      -0.87003480E-02   0.66690136E-01   0.50092678E-01   0.55249331E-01
  2149.6600       0.20030602       0.18813126      -0.12174765E-01   0.73068313E-01   0.54924001E-01   0.60138946E-01
  2149.7600       0.22303793       0.21064107      -0.12396865E-01   0.80517500E-01   0.63721705E-01   0.66401860E-01
  2149.8600       0.24312973       0.23511054      -0.80191937E-02   0.89487620E-01   0.71955856E-01   0.73667062E-01
  2149.9600       0.26953467       0.26519498      -0.43396840E-02   0.10124104       0.82576850E-01   0.81377097E-01
  2150.0600       0.30537319       0.29936855      -0.60046320E-02   0.11552753       0.92950368E-01   0.90890659E-01
  2150.1600       0.34823633       0.33630100      -0.11935327E-01   0.13171847       0.10213478       0.10244775
  2150.2600       0.39992631       0.38062846      -0.19297848E-01   0.14979722       0.11374495       0.11708629
  2150.3600       0.46581180       0.43957620      -0.26235606E-01   0.17488280       0.13194042       0.13275298
  2150.4600       0.54462514       0.51499862      -0.29626516E-01   0.20587970       0.15402817       0.15509075
  2150.5600       0.65148641       0.60712630      -0.44360113E-01   0.24497189       0.18085294       0.18130147
  2150.6600       0.76139951       0.72452112      -0.36878394E-01   0.29487701       0.21802110       0.21162301
  2150.7600       0.89129939       0.87992031      -0.11379080E-01   0.35923425       0.27066890       0.25001715
  2150.8600        1.0370435        1.0562611       0.19217634E-01   0.43368697       0.32738579       0.29518837
  2150.9600        1.2074442        1.2527967       0.45352466E-01   0.51756260       0.39243933       0.34279475
  2151.0600        1.3796670        1.4686864       0.89019432E-01   0.61037015       0.46708703       0.39122926
  2151.1600        1.5919464        1.6931641       0.10121772       0.70291876       0.55111046       0.43913491
  2151.2600        1.8541837        1.9333152       0.79131469E-01   0.79741543       0.64105399       0.49484578
  2151.3600        2.1564560        2.2044303       0.47974302E-01   0.90350192       0.74310641       0.55782196
  2151.4600        2.5362881        2.5329971      -0.32910013E-02    1.0363075       0.86207413       0.63461543
  2151.5600        3.0046051        2.9564084      -0.48196713E-01    1.1951242        1.0286100       0.73267419
  2151.6600        3.5324058        3.4978580      -0.34547752E-01    1.3947162        1.2375086       0.86563323
  2151.7600        4.1266424        4.0803135      -0.46328852E-01    1.6007770        1.4465906        1.0329459
  2151.8600        4.7725615        4.6891721      -0.83389406E-01    1.7876946        1.6686220        1.2328555
  2151.9600        5.3597916        5.2748208      -0.84970798E-01    1.9440336        1.8618592        1.4689280
  2152.0600        5.8528844        5.7918360      -0.61048372E-01    2.0630689        2.0108558        1.7179113
  2152.1600        6.2555601        6.1813497      -0.74210392E-01    2.1257521        2.0846289        1.9709686
  2152.2600        6.5737416        6.4929494      -0.80792196E-01    2.1535703        2.1254607        2.2139183
  2152.3600        6.7041182        6.6964892      -0.76289735E-02    2.1536523        2.1174858        2.4253511
  2152.4600        6.7998051        6.7986171      -0.11879373E-02    2.1318221        2.0735969        2.5931981
  2152.5600        6.8138871        6.8171303       0.32431833E-02    2.0925132        2.0097335        2.7148836
  2152.6600        6.7522332        6.7407278      -0.11505414E-01    2.0335441        1.9272121        2.7799716
  2152.7600        6.6185634        6.6116207      -0.69426652E-02    1.9589979        1.8331315        2.8194913
  2152.8600        6.4244529        6.4505064       0.26053572E-01    1.8876523        1.7481205        2.8147337
  2152.9600        6.2007450        6.2321725       0.31427428E-01    1.8139779        1.6369643        2.7812303
  2153.0600        5.8898885        5.9663298       0.76441315E-01    1.7237647        1.5420922        2.7004729
  2153.1600        5.5799349        5.6872303       0.10729544        1.6448477        1.4494439        2.5929387
  2153.2600        5.3309817        5.3848269       0.53845216E-01    1.5608667        1.3599918        2.4639684
  2153.3600        5.0200710        5.0765552       0.56484226E-01    1.4831165        1.2763356        2.3171031
  2153.4600        4.7398050        4.7718421       0.32037131E-01    1.4113861        1.2065111        2.1539450
  2153.5600        4.4536340        4.4871067       0.33472736E-01    1.3515614        1.1493146        1.9862307
  2153.6600        4.2071006        4.2095169       0.24162103E-02    1.3001587        1.0916822        1.8176759
  2153.7600        3.9528023        3.9499281      -0.28741795E-02    1.2474490        1.0515976        1.6508815
  2153.8600        3.7347466        3.7197674      -0.14979250E-01    1.2141856        1.0140349        1.4915469
  2153.9600        3.5719744        3.5141418      -0.57832622E-01    1.1893156       0.98239187        1.3424343
  2154.0600        3.4174741        3.3412627      -0.76211353E-01    1.1696813       0.96555122        1.2060303
  2154.1600        3.3006250        3.1986238      -0.10200129        1.1533918       0.95190074        1.0933312
  2154.2600        3.1875321        3.0854704      -0.10206168        1.1442586       0.94319087       0.99802097
  2154.3600        3.0799469        2.9997258      -0.80221075E-01    1.1391371       0.94533776       0.91525095
  2154.4600        3.0009477        2.9242635      -0.76684204E-01    1.1359895       0.94587384       0.84240014
  2154.5600        2.9279258        2.8776611      -0.50264719E-01    1.1386196       0.95119347       0.78784806
  2154.6600        2.8693324        2.8311468      -0.38185598E-01    1.1426972       0.95028569       0.73816389
  2154.7600        2.7758506        2.7995130       0.23662373E-01    1.1477918       0.95474446       0.69697677
  2154.8600        2.7420330        2.7669956       0.24962589E-01    1.1440145       0.95830624       0.66467489
  2154.9600        2.6831507        2.7238182       0.40667508E-01    1.1334432       0.95387541       0.63649957
  2155.0600        2.6547866        2.6960266       0.41240011E-01    1.1278309       0.95287889       0.61531681
  2155.1600        2.5781892        2.6644750       0.86285770E-01    1.1230519       0.94221489       0.59920817
  2155.2600        2.5388097        2.6215128       0.82703154E-01    1.1062742       0.92680728       0.58843130
  2155.3600        2.4784646        2.5684127       0.89948096E-01    1.0853245       0.90368718       0.57940099
  2155.4600        2.4348595        2.5223728       0.87513363E-01    1.0646030       0.88705093       0.57071883
  2155.5600        2.3784330        2.4683430       0.89909972E-01    1.0402431       0.86369675       0.56440309
  2155.6600        2.2988921        2.4118326       0.11294050        1.0166346       0.83433604       0.56086195
  2155.7600        2.2665372        2.3523174       0.85780178E-01   0.98533523       0.81133457       0.55564759
  2155.8600        2.2127292        2.2919154       0.79186238E-01   0.95468049       0.78039756       0.55683739
  2155.9600        2.1442038        2.2359190       0.91715217E-01   0.92814299       0.75076841       0.55700762
  2156.0600        2.1041200        2.1818022       0.77682173E-01   0.89848796       0.72898323       0.55433098
  2156.1600        2.0547001        2.1313998       0.76699705E-01   0.87318491       0.70285433       0.55536059
  2156.2600        1.9978764        2.0736840       0.75807593E-01   0.84428582       0.67016247       0.55923571
  2156.3600        1.9397344        2.0139094       0.74174969E-01   0.81310249       0.64016736       0.56063956
  2156.4600        1.9012398        1.9552357       0.53995923E-01   0.77901432       0.61085876       0.56536260
  2156.5600        1.8485514        1.8952887       0.46737340E-01   0.74979349       0.57638281       0.56911239
  2156.6600        1.8031765        1.8429399       0.39763402E-01   0.72091234       0.54878445       0.57324312
  2156.7600        1.7730428        1.7891906       0.16147866E-01   0.68965062       0.52497758       0.57456242
  2156.8600        1.7276318        1.7415231       0.13891280E-01   0.66142830       0.50004587       0.58004890
  2156.9600        1.6959992        1.6914218      -0.45774348E-02   0.64005220       0.46768420       0.58368537
  2157.0600        1.6588408        1.6542603      -0.45805411E-02   0.61888527       0.45085997       0.58451504
  2157.1600        1.6323548        1.6267145      -0.56402937E-02   0.60009595       0.43628791       0.59033066
  2157.2600        1.6111418        1.5926569      -0.18484875E-01   0.58269880       0.41921264       0.59074548
  2157.3600        1.5990120        1.5589542      -0.40057842E-01   0.56526389       0.40217200       0.59151830
  2157.4600        1.5589282        1.5348272      -0.24101071E-01   0.54906817       0.38794006       0.59781893
  2157.5600        1.5220768        1.5138877      -0.81891059E-02   0.53818560       0.37739120       0.59831092
  2157.6600        1.5195901        1.4861713      -0.33418824E-01   0.52309400       0.36395675       0.59912055
  2157.7600        1.4921109        1.4608100      -0.31300869E-01   0.51004281       0.35058896       0.60017829
  2157.8600        1.4718008        1.4359270      -0.35873825E-01   0.49838423       0.34039622       0.59714652
  2157.9600        1.4542680        1.4173348      -0.36933249E-01   0.48865602       0.33210722       0.59657155
  2158.0600        1.4332428        1.3933927      -0.39850080E-01   0.47642365       0.32057409       0.59639500
  2158.1600        1.4199212        1.3731783      -0.46742953E-01   0.46801840       0.31130603       0.59385383
  2158.2600        1.3832739        1.3605129      -0.22760979E-01   0.45972250       0.30521864       0.59557175
  2158.3600        1.3798319        1.3493733      -0.30458633E-01   0.45185072       0.30283283       0.59468971
  2158.4600        1.3572789        1.3300743      -0.27204629E-01   0.44728724       0.29366602       0.58912106
  2158.5600        1.3481071        1.3282259      -0.19881244E-01   0.44511153       0.29315486       0.58995948
  2158.6600        1.3389118        1.3226466      -0.16265162E-01   0.44148417       0.29075759       0.59040487
  2158.7600        1.3259640        1.3172823      -0.86817383E-02   0.44049137       0.28951424       0.58727664
  2158.8600        1.3090271        1.3215063       0.12479132E-01   0.44337787       0.29149977       0.58662863
  2158.9600        1.2900371        1.3248091       0.34772062E-01   0.44419636       0.29343653       0.58717625
  2159.0600        1.3018669        1.3286180       0.26751106E-01   0.44710171       0.29761894       0.58389733
  2159.1600        1.2859630        1.3347510       0.48788075E-01   0.45139481       0.29873318       0.58462304
  2159.2600        1.2789093        1.3431066       0.64197228E-01   0.45445391       0.30317005       0.58548260
  2159.3600        1.2834906        1.3473419       0.63851289E-01   0.45769792       0.30263201       0.58701195
  2159.4600        1.2892312        1.3606055       0.71374355E-01   0.46301862       0.30922902       0.58835790
  2159.5600        1.2898035        1.3647213       0.74917774E-01   0.46633463       0.31272926       0.58565740
  2159.6600        1.2937473        1.3734492       0.79701908E-01   0.47340175       0.31710928       0.58293821
  2159.7600        1.3012955        1.3835899       0.82294328E-01   0.47726752       0.32317275       0.58314960
  2159.8600        1.3038218        1.3862033       0.82381546E-01   0.48239773       0.32385648       0.57994911
  2159.9600        1.3075651        1.3978811       0.90316009E-01   0.48890561       0.33337537       0.57560016
  2160.0600        1.3353692        1.4035249       0.68155701E-01   0.49270343       0.33715301       0.57366844
  2160.1600        1.3341827        1.4128005       0.78617791E-01   0.49653484       0.34121954       0.57504607
  2160.2600        1.3439213        1.4140945       0.70173194E-01   0.50009239       0.34399985       0.57000228
  2160.3600        1.3563001        1.4152398       0.58939666E-01   0.50614742       0.34479840       0.56429396
  2160.4600        1.3769351        1.4213400       0.44404919E-01   0.51078436       0.34778201       0.56277361
  2160.9600        1.4296662        1.4629365       0.33270252E-01   0.53934660       0.37348102       0.55010883
  2161.4600        1.5065917        1.5311024       0.24510716E-01   0.58331343       0.40765234       0.54013661
  2161.9600        1.5510052        1.6171733       0.66168126E-01   0.63632216       0.45141545       0.52943573
  2162.4600        1.5995180        1.7072643       0.10774628       0.68300782       0.49525219       0.52900425
  2162.9600        1.6412770        1.7547604       0.11348341       0.70031390       0.50745740       0.54698909
  2163.4600        1.6557682        1.7442989       0.88530744E-01   0.67603731       0.48672549       0.58153610
  2163.9600        1.6642640        1.7207053       0.56441321E-01   0.64646636       0.45821092       0.61602806
  2164.4600        1.6981497        1.7200479       0.21898285E-01   0.63201242       0.44773386       0.64030167
  2164.9600        1.7396197        1.7458782       0.62584761E-02   0.64286409       0.45638219       0.64663192
  2165.4600        1.8076353        1.7698232      -0.37812067E-01   0.65382440       0.46554145       0.65045737
  2165.9600        1.8650868        1.7894025      -0.75684323E-01   0.66556171       0.47094002       0.65290079
  2166.4600        1.9059249        1.8086044      -0.97320432E-01   0.67264004       0.47755620       0.65840820
  2166.9600        1.9566407        1.8472540      -0.10938668       0.68579586       0.48645783       0.67500036
  2167.4600        1.9992485        1.8988212      -0.10042723       0.70681248       0.50025821       0.69175054
  2167.9600        2.0335314        1.9482544      -0.85276997E-01   0.72703778       0.51651541       0.70470120
  2168.4600        2.0547944        1.9986056      -0.56188788E-01   0.74478190       0.53679062       0.71703306
  2168.9600        2.0835515        2.0287471      -0.54804429E-01   0.75873910       0.54313849       0.72686947
  2169.4600        2.0802193        2.0428650      -0.37354238E-01   0.76210449       0.54742344       0.73333709
  2169.9600        2.0565535        2.0214271      -0.35126463E-01   0.74776112       0.53791864       0.73574732
  2170.4600        2.0272356        1.9874781      -0.39757535E-01   0.73139885       0.52033183       0.73574739
  2170.9600        1.9909292        1.9431532      -0.47776015E-01   0.71003453       0.50284125       0.73027738
  2171.4600        1.9467674        1.8998193      -0.46948091E-01   0.69214596       0.48528114       0.72239225
  2171.9600        1.8954908        1.8543527      -0.41138125E-01   0.67864147       0.46931139       0.70639980
  2172.4600        1.8433835        1.7995617      -0.43821793E-01   0.66234932       0.45374784       0.68346451
  2172.9600        1.7803690        1.7492263      -0.31142712E-01   0.64702580       0.44143844       0.66076204
  2173.4600        1.7286048        1.6921284      -0.36476407E-01   0.62683414       0.42702144       0.63827279
  2173.9600        1.6691658        1.6296936      -0.39472243E-01   0.60842375       0.40883333       0.61243651
  2174.4600        1.6085892        1.5666602      -0.41928984E-01   0.58912793       0.39542210       0.58211021
  2174.9600        1.5532314        1.5133986      -0.39832810E-01   0.57223400       0.37779155       0.56337307
  2175.4600        1.4884292        1.4560481      -0.32381131E-01   0.55186926       0.36268465       0.54149419
  2175.9600        1.4359607        1.3964343      -0.39526439E-01   0.53744816       0.34158966       0.51739647
  2176.4600        1.3804223        1.3557284      -0.24693954E-01   0.51858251       0.33340214       0.50374375
  2176.9600        1.3453096        1.3007256      -0.44583953E-01   0.49752623       0.31479155       0.48840782
  2177.4600        1.2945873        1.2600209      -0.34566351E-01   0.48586488       0.30448903       0.46966702
  2177.9600        1.2504183        1.2236541      -0.26764223E-01   0.47415575       0.29011056       0.45938780
  2178.4600        1.2216422        1.1888118      -0.32830367E-01   0.45915932       0.28257595       0.44707651
  2178.9600        1.1968333        1.1611065      -0.35726835E-01   0.44919672       0.27414231       0.43776748
  2179.4600        1.1697763        1.1394264      -0.30349920E-01   0.44280421       0.26681260       0.42980956
  2179.9600        1.1635891        1.1106907      -0.52898339E-01   0.42959388       0.26080826       0.42028860
  2180.4600        1.1428397        1.0833202      -0.59519518E-01   0.41990348       0.25055374       0.41286301
  2180.9600        1.1354300        1.0666532      -0.68776750E-01   0.41181390       0.24718205       0.40765729
  2181.4600        1.1204520        1.0472568      -0.73195256E-01   0.40169811       0.24201711       0.40354157
  2181.9600        1.1087769        1.0374445      -0.71332433E-01   0.40130658       0.23440372       0.40173421
  2182.4600        1.1127059        1.0243006      -0.88405337E-01   0.39845626       0.22980187       0.39604243
  2182.9600        1.1058018        1.0175165      -0.88285296E-01   0.39695074       0.22683850       0.39372722
  2183.4600        1.1070202        1.0112271      -0.95793111E-01   0.39659752       0.22388028       0.39074927
  2183.9600        1.0947419        1.0127668      -0.81975165E-01   0.39793742       0.22288640       0.39194296
  2184.4600        1.0874839        1.0127755      -0.74708377E-01   0.39952544       0.22248145       0.39076860
  2184.9600        1.0932078        1.0141529      -0.79054905E-01   0.40316201       0.22225602       0.38873487
  2185.4600        1.0909266        1.0205222      -0.70404398E-01   0.40513792       0.22304867       0.39233556
  2185.9600        1.0874174        1.0158673      -0.71550069E-01   0.40580229       0.22246654       0.38759846
  2186.4600        1.0851650        1.0177353      -0.67429684E-01   0.40740635       0.22198456       0.38834441
  2186.9600        1.0754727        1.0111829      -0.64289776E-01   0.40601430       0.21892739       0.38624123
  2187.4600        1.0777818        1.0165640      -0.61217821E-01   0.40848472       0.22115684       0.38692245
  2187.9600        1.0684778        1.0110846      -0.57393210E-01   0.40538861       0.21812600       0.38756995
  2188.4600        1.0699923        1.0042909      -0.65701455E-01   0.40126526       0.21633130       0.38669433
  2188.9600        1.0640525        1.0025913      -0.61461168E-01   0.39969819       0.21485824       0.38803491
  2189.4600        1.0565452        1.0027454      -0.53799876E-01   0.39885682       0.21448149       0.38940705
  2189.9600        1.0521945       0.99984468      -0.52349840E-01   0.39546457       0.21574195       0.38863817
  2190.4600        1.0466014       0.99620726      -0.50394154E-01   0.39522503       0.21208047       0.38890176
  2190.9600        1.0404936       0.99294292      -0.47550724E-01   0.39357830       0.21113284       0.38823178
  2191.4600        1.0419631       0.99392733      -0.48035747E-01   0.39122542       0.21226404       0.39043787
  2191.9600        1.0352287       0.99481163      -0.40417059E-01   0.39326585       0.21134363       0.39020215
  2192.4600        1.0393454       0.99035029      -0.48995157E-01   0.39148095       0.20988042       0.38898892
  2192.9600        1.0335808       0.99511416      -0.38466619E-01   0.39066376       0.21286553       0.39158487
  2193.4600        1.0356028       0.99308722      -0.42515579E-01   0.39322555       0.21197309       0.38788858
  2193.9600        1.0223819        1.0003517      -0.22030194E-01   0.39635100       0.21291828       0.39108244
  2194.4600        1.0197720       0.99716990      -0.22602114E-01   0.39700849       0.21108087       0.38908054
  2194.9600        1.0223827        1.0000935      -0.22289216E-01   0.39826528       0.21227405       0.38955419
  2195.4600        1.0157206        1.0026618      -0.13058784E-01   0.39942026       0.21324250       0.38999903
  2195.9600        1.0125635        1.0058218      -0.67417406E-02   0.39994200       0.21402885       0.39185091
  2196.4600        1.0143146        1.0047213      -0.95933811E-02   0.39962734       0.21549419       0.38959972
  2196.9600        1.0114971        1.0045197      -0.69773857E-02   0.39835109       0.21355551       0.39261308
  2197.4600        1.0138116        1.0061201      -0.76915541E-02   0.40129071       0.21328596       0.39154341
  2197.9600        1.0059197        1.0089581       0.30383755E-02   0.40032060       0.21587365       0.39276383
  2198.4600        1.0035229        1.0044144       0.89148778E-03   0.39794406       0.21406829       0.39240203
  2198.9600        1.0067909        1.0035546      -0.32363629E-02   0.39705073       0.21179656       0.39470726
  2199.4600        1.0068392        1.0009655      -0.58737045E-02   0.39443855       0.21114686       0.39538006
  2199.9600        1.0051376       0.99671859      -0.84190023E-02   0.39332784       0.20924035       0.39415040
  2200.4600        1.0014334       0.99725108      -0.41822819E-02   0.39214570       0.20660035       0.39850503
  2201.4600       0.99686004       0.99129298      -0.55670587E-02   0.38403667       0.20600226       0.40125405
  2202.4600       0.98957077       0.98535240      -0.42183703E-02   0.38147618       0.19845736       0.40541885
  2203.4600       0.98675089       0.98043724      -0.63136432E-02   0.37730517       0.19576687       0.40736520
  2204.4600       0.98663793       0.97432908      -0.12308846E-01   0.37326709       0.19123791       0.40982408
  2205.4600       0.98749830       0.97389988      -0.13598425E-01   0.37221451       0.19054701       0.41113836
  2206.4600       0.97943253       0.96878445      -0.10648074E-01   0.37041365       0.18598066       0.41239014
  2207.4600       0.98495371       0.96395860      -0.20995114E-01   0.36712263       0.18342317       0.41341280
  2208.4600       0.98333651       0.96259938      -0.20737122E-01   0.36773322       0.18302857       0.41183759
  2209.4600       0.98377974       0.95615673      -0.27623004E-01   0.36678361       0.18394575       0.40542737
  2210.4600       0.98275845       0.95425639      -0.28502065E-01   0.36749343       0.18150798       0.40525498
  2211.4600       0.99142898       0.96385004      -0.27578940E-01   0.37060562       0.18583183       0.40741260
  2212.4600       0.99843997       0.97488212      -0.23557845E-01   0.37619880       0.18514126       0.41354206
  2213.4600       0.99303596       0.99132852      -0.17074431E-02   0.38320684       0.19113194       0.41698974
  2214.4600        1.0000921        1.0049807       0.48885794E-02   0.39182757       0.19383205       0.41932105
  2215.4600        1.0042282        1.0208754       0.16647180E-01   0.39865559       0.19819347       0.42402634
  2216.4600        1.0096266        1.0379511       0.28324448E-01   0.40336463       0.21145758       0.42312884
  2217.4600        1.0159640        1.0510055       0.35041517E-01   0.41472044       0.20945264       0.42683246
  2218.4600        1.0212685        1.0758014       0.54532890E-01   0.42450770       0.22116031       0.43013339
  2219.4600        1.0225063        1.0908000       0.68293715E-01   0.43017020       0.22791286       0.43271696
  2220.4600        1.0236285        1.1021329       0.78504350E-01   0.43786257       0.22863687       0.43563343
  2221.4600        1.0240970        1.1125467       0.88449707E-01   0.44245796       0.23352139       0.43656739
  2222.4600        1.0338456        1.1240822       0.90236543E-01   0.44652433       0.23405474       0.44350310
  2223.4600        1.0239488        1.1343759       0.11042710       0.45177306       0.23621281       0.44638998
  2224.4600        1.0294356        1.1312031       0.10176750       0.45110832       0.23442221       0.44567260
  2225.4600        1.0262564        1.1312459       0.10498949       0.45086550       0.23089466       0.44948573
  2226.4600        1.0283465        1.1308385       0.10249197       0.44983776       0.22882139       0.45217935
  2227.4600        1.0194320        1.1344166       0.11498453       0.44894150       0.22721234       0.45826272
  2228.4600        1.0096778        1.1416793       0.13200144       0.44967416       0.22751719       0.46448791
  2229.4600        1.0109210        1.1448705       0.13394951       0.44871426       0.23077488       0.46538138
  2230.4600        1.0171356        1.1496751       0.13253944       0.45313876       0.22747992       0.46905640
  2231.4600        1.0051711        1.1660832       0.16091208       0.45925511       0.23237347       0.47445460
  2232.4600        1.0012136        1.1835594       0.18234587       0.46138431       0.24299148       0.47918364
  2233.4600        1.0020685        1.1859274       0.18385890       0.46276035       0.24011029       0.48305679
  2234.4600       0.99023401        1.1940137       0.20377966       0.46777924       0.23897699       0.48725744
  2235.4600       0.98311629        1.2002177       0.21710138       0.47066237       0.23878005       0.49077524
  2236.4600       0.98408140        1.2062025       0.22212109       0.47160570       0.23978480       0.49481199
  2237.4600       0.97709189        1.2138890       0.23679710       0.47420872       0.24119988       0.49848039
  2238.4600       0.97522368        1.2151574       0.23993368       0.47432383       0.23860898       0.50222455
