# XDI/1.0 Athena/0.9.26
# Element.edge:                  K
# Element.symbol:                P
# Column.1:                      energy eV
# Column.2:                      data
# Column.3:                      fit
# Column.4:                      residual
# Column.5:                      Pi_Al_GibbSorb_std.xmu
# Column.6:                      Pi_Apatite_CaDefHydroxy_std.xmu
# Column.7:                      Pi_Na_Tri_std.xmu
# Athena.e0:                     2154
# Athena.eshift:                 0
# Athena.rbkg:                   1.0
# Athena.importance:             1
# Athena.standard:               None
# Athena.bkg_kweight:            2
# Athena.edge_step:              0.2063863
# Athena.fixed_step:             no
# Athena.pre_edge_range:         -20 -10
# Athena.pre_edge_line:          4.633759 - 0.00206833 * E
# Athena.normalization_range:    34 50
# Athena.post_edge_polynomial:   4.131752 - 0.00173946 * E + 0 * E^2 + 0 * E^3
# Athena.spline_range_energy:    0.000 86.616
# Athena.clamps:                 0 24
# Athena.spline_range_k:         0.000 4.768
# Athena.kweight:                2
# Athena.window:                 hanning
# Athena.phase_correction:       no
# Athena.k_range:                2.768 3.000
# Athena.dk:                     1
# Athena.r_range:                1 3
# Athena.dr:                     0.0
# Athena.window:                 hanning
# Athena.plot_multiplier:        1
# Athena.y_offset:               0
# ///
# LCF fit of BSLE_0007-solid_P-XANES.xmu as flattened mu(E) from 2134 to 2184
# Fit included 250 data points and 3 variables, and approximately 107.240 measurements
# Weights sum to 1: no
# Weights forced between 0 and 1: yes
# Overall e0 shift used: no
# Noise added to data: 0
# R-factor = 0.0004150
# Chi-square = 0.33205
# Reduced chi-square = 0.0013389
# .    standard             weight           e0
# ========================================================
# .   Pi_Al_GibbSorb_std.xmu  0.127 (0.004)    0.000 (0.000)
# .   Pi_Apatite_CaDefHydroxy_std.xmu  0.297 (0.005)    0.000 (0.000)
# .   Pi_Na_Tri_std.xmu     0.571 (0.011)    0.000 (0.000)
# .         sum ........... 0.994
#------------------------
#  energy data fit residual Pi_Na_Tri_std.xmu Pi_Apatite_CaDefHydroxy_std.xmu Pi_Al_GibbSorb_std.xmu
  2125.4600       0.21783469E-01   0.66837354E-01   0.45053885E-01  -0.16681559E-01   0.35626001E-02   0.79956313E-01
  2127.4600       0.14354014E-01   0.53960418E-01   0.39606404E-01  -0.16274799E-01   0.28048332E-02   0.67430384E-01
  2129.4600       0.12622611E-01   0.39219564E-01   0.26596953E-01  -0.18813731E-01   0.20950981E-02   0.55938197E-01
  2131.4600       0.57406731E-02   0.16894820E-01   0.11154147E-01  -0.10102341E-01   0.97521160E-03   0.26021949E-01
  2133.4600       0.48232780E-02   0.22572940E-01   0.17749662E-01   0.92036769E-02   0.61128056E-03   0.12757983E-01
  2135.4600      -0.32748264E-02   0.78254503E-02   0.11100277E-01   0.84731368E-03   0.36875927E-03   0.66093774E-02
  2137.4600      -0.32568582E-03  -0.45721968E-04   0.27996385E-03  -0.10334592E-02   0.10664918E-02  -0.78754620E-04
  2139.4600      -0.18293602E-02   0.60884595E-03   0.24382062E-02  -0.22243738E-03   0.82423115E-03   0.70521847E-05
  2140.4600       0.10794138E-02  -0.47291336E-02  -0.58085474E-02   0.51020079E-02  -0.26193953E-03  -0.95692019E-02
  2140.6600       0.49055700E-02   0.21683031E-02  -0.27372669E-02   0.29673095E-02   0.36932836E-03  -0.11683347E-02
  2140.7600      -0.32814410E-03  -0.11053401E-03   0.21761009E-03   0.39286663E-02  -0.11006599E-03  -0.39291344E-02
  2140.8600      -0.60027789E-02  -0.66037623E-02  -0.60098340E-03  -0.63407195E-03  -0.59667112E-03  -0.53730193E-02
  2140.9600       0.39534687E-02  -0.39088817E-02  -0.78623503E-02   0.26553275E-04  -0.89932993E-03  -0.30361050E-02
  2141.0600      -0.22686831E-02  -0.41389134E-02  -0.18702303E-02   0.18284797E-02  -0.10965823E-02  -0.48708108E-02
  2141.1600      -0.16977484E-02  -0.39806290E-02  -0.22828806E-02  -0.32603808E-04  -0.10936527E-02  -0.28543725E-02
  2141.2600      -0.18875230E-02  -0.37943132E-02  -0.19067901E-02   0.94354314E-03  -0.68868175E-03  -0.40491745E-02
  2141.3600      -0.42505624E-03  -0.21227438E-02  -0.16976876E-02   0.30757814E-02  -0.15375819E-03  -0.50447670E-02
  2141.4600       0.16333803E-02  -0.79818478E-03  -0.24315651E-02   0.33346094E-02  -0.80416000E-04  -0.40523782E-02
  2141.5600       0.20638019E-02  -0.81125643E-02  -0.10176366E-01  -0.39988433E-03  -0.34912078E-03  -0.73635592E-02
  2141.6600       0.43499668E-02  -0.21421599E-02  -0.64921266E-02   0.18161644E-02  -0.33036368E-03  -0.36279606E-02
  2141.7600      -0.25262982E-02  -0.78088266E-02  -0.52825284E-02  -0.22905464E-02  -0.49011649E-04  -0.54692686E-02
  2141.8600      -0.89929576E-04  -0.45811985E-02  -0.44912689E-02   0.10741986E-02  -0.10908234E-04  -0.56444889E-02
  2141.9600      -0.11470099E-02  -0.68186230E-02  -0.56716131E-02  -0.95450588E-03  -0.23018935E-03  -0.56339277E-02
  2142.0600       0.76122295E-03  -0.94372615E-02  -0.10198484E-01  -0.31804114E-02  -0.35733940E-03  -0.58995107E-02
  2142.1600      -0.18511931E-02  -0.33708677E-02  -0.15196745E-02   0.19665864E-03  -0.40779370E-03  -0.31597326E-02
  2142.2600      -0.17017980E-02  -0.50531553E-02  -0.33513573E-02   0.10347648E-02  -0.65705932E-03  -0.54308608E-02
  2142.3600      -0.42829723E-03  -0.43455045E-02  -0.39172073E-02   0.42097810E-03  -0.96064440E-03  -0.38058383E-02
  2142.4600      -0.10686832E-02  -0.91422051E-02  -0.80735219E-02  -0.52855264E-02  -0.87811262E-03  -0.29785661E-02
  2142.5600      -0.16896880E-02  -0.12815599E-01  -0.11125911E-01  -0.83889767E-02  -0.45564557E-03  -0.39709769E-02
  2142.6600      -0.74566650E-03  -0.10482623E-02  -0.30259585E-03   0.21538874E-02  -0.10476332E-03  -0.30973865E-02
  2142.7600      -0.24956222E-02  -0.46438818E-02  -0.21482596E-02  -0.20711440E-02  -0.10727849E-04  -0.25620099E-02
  2142.8600      -0.26999327E-02  -0.31121028E-02  -0.41217001E-03  -0.24113143E-02  -0.16402102E-03  -0.53676748E-03
  2142.9600      -0.53075035E-02  -0.11248697E-02   0.41826338E-02  -0.21179760E-02  -0.35504321E-03   0.13481495E-02
  2143.0600       0.39458575E-03  -0.27690219E-02  -0.31636076E-02  -0.41023103E-02  -0.25074364E-03   0.15840320E-02
  2143.1600       0.54882617E-03   0.23158488E-02   0.17670227E-02   0.15844774E-02   0.82194455E-04   0.64917696E-03
  2143.2600      -0.17438012E-02  -0.20777713E-02  -0.33397003E-03  -0.50831739E-03   0.28793637E-03  -0.18573902E-02
  2143.3600       0.59060918E-02  -0.40153635E-02  -0.99214553E-02  -0.29067739E-02   0.32500681E-03  -0.14335965E-02
  2143.4600      -0.26272600E-02  -0.13343540E-02   0.12929060E-02   0.17695959E-03   0.38704889E-03  -0.18983625E-02
  2143.5600      -0.15572611E-02   0.38058626E-02   0.53631237E-02   0.41727480E-02   0.47914469E-03  -0.84603014E-03
  2143.6600       0.67225187E-02  -0.33546443E-02  -0.10077163E-01  -0.24827867E-02   0.45858425E-03  -0.13304419E-02
  2143.7600       0.32282611E-02  -0.37251130E-02  -0.69533741E-02  -0.71044040E-03   0.21285928E-03  -0.32275318E-02
  2143.8600      -0.26256492E-02  -0.63700550E-03   0.19886437E-02   0.24299884E-02  -0.32234372E-03  -0.27446501E-02
  2143.9600       0.79750210E-02   0.41342835E-03  -0.75615927E-02   0.35170609E-02  -0.88186978E-03  -0.22217628E-02
  2144.0600      -0.15419231E-02  -0.23758758E-02  -0.83395269E-03   0.20922848E-02  -0.97708453E-03  -0.34910760E-02
  2144.1600       0.47900530E-02  -0.83586030E-03  -0.56259133E-02   0.31275920E-02  -0.55614788E-03  -0.34073044E-02
  2144.2600       0.71004443E-02  -0.21431151E-03  -0.73147558E-02   0.31768939E-02   0.90868962E-04  -0.34820744E-02
  2144.3600       0.72449941E-02   0.20003388E-02  -0.52446553E-02   0.41259257E-02   0.65532898E-03  -0.27809159E-02
  2144.4600       0.55095742E-02  -0.11751570E-03  -0.56270899E-02   0.31103418E-02   0.84314170E-03  -0.40709992E-02
  2144.5600       0.77569768E-02   0.32182940E-02  -0.45386828E-02   0.53042054E-02   0.69042041E-03  -0.27763318E-02
  2144.6600       0.65836098E-02  -0.20989341E-02  -0.86825439E-02   0.16855673E-02   0.48238395E-03  -0.42668853E-02
  2144.7600       0.73454473E-03  -0.16767057E-02  -0.24112505E-02   0.21194112E-02   0.43246113E-03  -0.42285781E-02
  2144.8600       0.87284528E-02   0.31593852E-02  -0.55690676E-02   0.46830269E-02   0.67645198E-03  -0.22000936E-02
  2144.9600       0.72934405E-02   0.24043853E-02  -0.48890552E-02   0.27553880E-02   0.10893241E-02  -0.14403268E-02
  2145.0600       0.77383979E-02   0.50380369E-02  -0.27003610E-02   0.64479797E-02   0.13625770E-02  -0.27725198E-02
  2145.1600       0.44282610E-02  -0.14940097E-02  -0.59222708E-02   0.13207534E-02   0.14238883E-02  -0.42386514E-02
  2145.2600       0.83569768E-02   0.14505582E-02  -0.69064186E-02   0.15623263E-02   0.13889683E-02  -0.15007364E-02
  2145.3600       0.81768927E-02   0.31699336E-02  -0.50069591E-02   0.19813802E-02   0.14122712E-02  -0.22371780E-03
  2145.4600       0.68533219E-02   0.97389753E-02   0.28856534E-02   0.85678978E-02   0.16584897E-02  -0.48741218E-03
  2145.5600       0.10375034E-01   0.44108925E-02  -0.59641414E-02   0.21909096E-02   0.20549527E-02   0.16503015E-03
  2145.6600       0.75833423E-02   0.12514387E-01   0.49310447E-02   0.83706999E-02   0.23528778E-02   0.17908093E-02
  2145.7600       0.69041941E-02   0.15127872E-01   0.82236775E-02   0.10912130E-01   0.24054481E-02   0.18102931E-02
  2145.8600       0.14689755E-01   0.12316126E-01  -0.23736290E-02   0.56789085E-02   0.21696786E-02   0.44675389E-02
  2145.9600       0.77989542E-02   0.94126044E-02   0.16136502E-02   0.33963076E-02   0.19295352E-02   0.40867615E-02
  2146.0600       0.10414598E-01   0.15928241E-01   0.55136422E-02   0.77519880E-02   0.21710562E-02   0.60051962E-02
  2146.1600       0.17124506E-01   0.16200861E-01  -0.92364568E-03   0.77199445E-02   0.26686560E-02   0.58122602E-02
  2146.2600       0.20108392E-01   0.22123319E-01   0.20149269E-02   0.12297476E-01   0.27061508E-02   0.71196919E-02
  2146.3600       0.11579886E-01   0.25285231E-01   0.13705345E-01   0.13872621E-01   0.24832866E-02   0.89293229E-02
  2146.4600       0.16385598E-01   0.26402391E-01   0.10016793E-01   0.13919458E-01   0.28377804E-02   0.96451522E-02
  2146.5600       0.20033287E-01   0.26469554E-01   0.64362670E-02   0.13717329E-01   0.34577745E-02   0.92944507E-02
  2146.6600       0.25740221E-01   0.25438114E-01  -0.30210790E-03   0.10209616E-01   0.32323799E-02   0.11996118E-01
  2146.7600       0.22735337E-01   0.27757212E-01   0.50218747E-02   0.13362370E-01   0.25252523E-02   0.11869590E-01
  2146.8600       0.24299555E-01   0.27947471E-01   0.36479159E-02   0.15307267E-01   0.27345476E-02   0.99056562E-02
  2146.9600       0.29962882E-01   0.33192455E-01   0.32295726E-02   0.14784686E-01   0.35162909E-02   0.14891478E-01
  2147.0600       0.29177138E-01   0.32800268E-01   0.36231297E-02   0.16603868E-01   0.33008507E-02   0.12895549E-01
  2147.1600       0.37733099E-01   0.35089127E-01  -0.26439718E-02   0.18797731E-01   0.25524262E-02   0.13738969E-01
  2147.2600       0.43963324E-01   0.37106677E-01  -0.68566471E-02   0.16308069E-01   0.31736951E-02   0.17624912E-01
  2147.3600       0.37193655E-01   0.45241878E-01   0.80482229E-02   0.18228316E-01   0.48013484E-02   0.22212213E-01
  2147.4600       0.39644560E-01   0.45025945E-01   0.53813855E-02   0.19125583E-01   0.54264007E-02   0.20473961E-01
  2147.5600       0.47861351E-01   0.50393328E-01   0.25319771E-02   0.21773009E-01   0.49426982E-02   0.23677621E-01
  2147.6600       0.45791606E-01   0.55415055E-01   0.96234488E-02   0.25374395E-01   0.46767212E-02   0.25363939E-01
  2147.7600       0.55650948E-01   0.52980945E-01  -0.26700035E-02   0.19734446E-01   0.49860021E-02   0.28260497E-01
  2147.8600       0.49622608E-01   0.64572846E-01   0.14950238E-01   0.31191830E-01   0.54696807E-02   0.27911335E-01
  2147.9600       0.60136063E-01   0.63020742E-01   0.28846791E-02   0.30193501E-01   0.59644280E-02   0.26862813E-01
  2148.0600       0.68701714E-01   0.65417525E-01  -0.32841893E-02   0.30955192E-01   0.65035295E-02   0.27958803E-01
  2148.1600       0.61869057E-01   0.69627348E-01   0.77582910E-02   0.32347926E-01   0.71014848E-02   0.30177937E-01
  2148.2600       0.75192776E-01   0.79762357E-01   0.45695811E-02   0.43263008E-01   0.77530076E-02   0.28746342E-01
  2148.3600       0.74460330E-01   0.78832489E-01   0.43721596E-02   0.40470149E-01   0.84313903E-02   0.29930950E-01
  2148.4600       0.79222434E-01   0.82246972E-01   0.30245376E-02   0.43038695E-01   0.90878268E-02   0.30120450E-01
  2148.5600       0.96194651E-01   0.82705138E-01  -0.13489514E-01   0.43336963E-01   0.95837306E-02   0.29784444E-01
  2148.6600       0.96838265E-01   0.87852829E-01  -0.89854362E-02   0.48902965E-01   0.97382786E-02   0.29211586E-01
  2148.7600       0.10356755       0.93096144E-01  -0.10471410E-01   0.50211889E-01   0.97662489E-02   0.33118007E-01
  2148.8600       0.11363524       0.97598412E-01  -0.16036832E-01   0.52916010E-01   0.10155713E-01   0.34526689E-01
  2148.9600       0.11611037       0.10928477      -0.68256056E-02   0.60212451E-01   0.10914752E-01   0.38157565E-01
  2149.0600       0.13548585       0.11786656      -0.17619287E-01   0.65830219E-01   0.11699347E-01   0.40337000E-01
  2149.1600       0.14501571       0.12448577      -0.20529943E-01   0.67661725E-01   0.12506703E-01   0.44317343E-01
  2149.2600       0.15591195       0.13918401      -0.16727937E-01   0.78069014E-01   0.13585981E-01   0.47529016E-01
  2149.3600       0.16883835       0.16118688      -0.76514737E-02   0.88981630E-01   0.14921511E-01   0.57283739E-01
  2149.4600       0.18531635       0.16683633      -0.18480025E-01   0.87963581E-01   0.16299112E-01   0.62573634E-01
  2149.5600       0.20199785       0.19478606      -0.72117871E-02   0.10674452       0.17659368E-01   0.70382177E-01
  2149.6600       0.22648026       0.21308562      -0.13394640E-01   0.11684861       0.19066630E-01   0.77170376E-01
  2149.7600       0.24590903       0.24165985      -0.42491785E-02   0.13153270       0.20595661E-01   0.89531495E-01
  2149.8600       0.27819719       0.27098438      -0.72128104E-02   0.14755775       0.22325827E-01   0.10110080
  2149.9600       0.31314541       0.31051757      -0.26278353E-02   0.17017179       0.24322070E-01   0.11602371
  2150.0600       0.34757518       0.35357128       0.59961050E-02   0.19632558       0.26646788E-01   0.13059891
  2150.1600       0.40607147       0.39971677      -0.63546946E-02   0.22672166       0.29491736E-01   0.14350337
  2150.2600       0.46955840       0.44636932      -0.23189079E-01   0.25343255       0.33120652E-01   0.15981612
  2150.3600       0.54417495       0.51624172      -0.27933233E-01   0.29347670       0.37383555E-01   0.18538146
  2150.4600       0.65099325       0.59827147      -0.52721775E-01   0.33998164       0.41874205E-01   0.21641562
  2150.5600       0.76175076       0.68961162      -0.72139137E-01   0.38836739       0.47138756E-01   0.25410547
  2150.6600       0.89427328       0.80216416      -0.92109117E-01   0.44147365       0.54362328E-01   0.30632819
  2150.7600        1.0397909       0.93748670      -0.10230415       0.49394146       0.63244814E-01   0.38030043
  2150.8600        1.2081346        1.1037657      -0.10436887       0.57133795       0.72437857E-01   0.45998987
  2150.9600        1.4030498        1.2827019      -0.12034786       0.64910420       0.82205065E-01   0.55139265
  2151.0600        1.5985368        1.4919967      -0.10654003       0.74170490       0.94016239E-01   0.65627559
  2151.1600        1.8509461        1.7669937      -0.83952392E-01   0.88415063       0.10851128       0.77433181
  2151.2600        2.1378200        2.0746878      -0.63132150E-01    1.0482983       0.12568347       0.90070600
  2151.3600        2.4917913        2.4580685      -0.33722781E-01    1.2682071       0.14576774        1.0440936
  2151.4600        2.9374644        2.8983319      -0.39132587E-01    1.5178415       0.16924240        1.2112480
  2151.5600        3.4439798        3.4346976      -0.92822044E-02    1.7922074       0.19725285        1.4452374
  2151.6600        4.0165752        4.0657052       0.49130001E-01    2.0954829       0.23147413        1.7387481
  2151.7600        4.6836099        4.7395830       0.55973128E-01    2.4331725       0.27389396        2.0325166
  2151.8600        5.3715278        5.4648568       0.93329010E-01    2.7936881       0.32668943        2.3444793
  2151.9600        6.0128826        6.0987077       0.85825154E-01    3.0912966       0.39142598        2.6159852
  2152.0600        6.6013753        6.6123541       0.10978856E-01    3.3180606       0.46896224        2.8253313
  2152.1600        7.0202831        7.0135328      -0.67503247E-02    3.5278653       0.55668209        2.9289854
  2152.2600        7.3260051        7.3236846      -0.23205007E-02    3.6879999       0.64932895        2.9863557
  2152.3600        7.5222721        7.5006787      -0.21593434E-01    3.7835759       0.74195221        2.9751506
  2152.4600        7.6451332        7.5582566      -0.86876528E-01    3.8148397       0.82993197        2.9134850
  2152.5600        7.6393035        7.5421727      -0.97130778E-01    3.8091282       0.90929012        2.8237544
  2152.6600        7.5879766        7.4965493      -0.91427294E-01    3.8122415       0.97649923        2.7078085
  2152.7600        7.4889237        7.3479583      -0.14096540        3.7448555        1.0274812        2.5756216
  2152.8600        7.2115159        7.1654299      -0.46085958E-01    3.6511924        1.0580598        2.4561778
  2152.9600        6.9814950        6.8929499      -0.88545026E-01    3.5238818        1.0690692        2.2999990
  2153.0600        6.6122206        6.6288793       0.16658632E-01    3.3971136        1.0650657        2.1667000
  2153.1600        6.3021072        6.3146600       0.12552857E-01    3.2295740        1.0485605        2.0365256
  2153.2600        5.9576407        6.0022949       0.44654203E-01    3.0710810        1.0203720        1.9108419
  2153.3600        5.6461705        5.6786533       0.32482755E-01    2.9047000       0.98065166        1.7933016
  2153.4600        5.2774776        5.3381257       0.60648094E-01    2.7136935       0.92923685        1.6951954
  2153.5600        4.9634880        5.0096374       0.46149447E-01    2.5263599       0.86844537        1.6148321
  2153.6600        4.6366098        4.7226713       0.86061473E-01    2.3863299       0.80248511        1.5338563
  2153.7600        4.3638535        4.4342174       0.70363915E-01    2.2215018       0.73517971        1.4775359
  2153.8600        4.0994795        4.1479403       0.48460737E-01    2.0533213       0.66986014        1.4247588
  2153.9600        3.9006679        3.9031912       0.25232608E-02    1.9154199       0.60747223        1.3802991
  2154.0600        3.7182185        3.7143086      -0.39099809E-02    1.8103730       0.54729825        1.3566373
  2154.1600        3.5471459        3.5232902      -0.23855681E-01    1.6947758       0.49105648        1.3374579
  2154.2600        3.3889907        3.3659380      -0.23052686E-01    1.5986030       0.44211487        1.3252202
  2154.3600        3.2691424        3.2383584      -0.30783992E-01    1.5101482       0.39997363        1.3282366
  2154.4600        3.1450108        3.1152714      -0.29739390E-01    1.4249200       0.36136162        1.3289898
  2154.5600        3.0303179        3.0150680      -0.15249922E-01    1.3520243       0.32657955        1.3364641
  2154.6600        2.9670770        2.9219184      -0.45158552E-01    1.2881974       0.29853240        1.3351887
  2154.7600        2.8869309        2.8489032      -0.38027708E-01    1.2303210       0.27712880        1.3414534
  2154.8600        2.8172991        2.8035000      -0.13799044E-01    1.1970972       0.25994498        1.3464578
  2154.9600        2.7549303        2.7370272      -0.17903118E-01    1.1518516       0.24494330        1.3402324
  2155.0600        2.6816791        2.6726675      -0.90115483E-02    1.1032708       0.23056458        1.3388322
  2155.1600        2.6199160        2.6072688      -0.12647216E-01    1.0661498       0.21727012        1.3238489
  2155.2600        2.5525179        2.5542965       0.17786591E-02    1.0451648       0.20693113        1.3022006
  2155.3600        2.4651814        2.4841814       0.19000007E-01    1.0150815       0.19938399        1.2697159
  2155.4600        2.4248829        2.4288355       0.39526053E-02   0.98952387       0.19297028        1.2463413
  2155.5600        2.3590255        2.3753159       0.16290387E-01   0.97426757       0.18752055        1.2135278
  2155.6600        2.2903240        2.3194467       0.29122729E-01   0.96322892       0.18394297        1.1722749
  2155.7600        2.2084724        2.2637291       0.55256679E-01   0.94209603       0.18167615        1.1399569
  2155.8600        2.1647871        2.2052839       0.40496864E-01   0.92966957       0.17912517        1.0964892
  2155.9600        2.0999036        2.1408150       0.40911346E-01   0.90947832       0.17647758        1.0548591
  2156.0600        2.0592175        2.0952050       0.35987530E-01   0.89578238       0.17517264        1.0242500
  2156.1600        1.9986415        2.0467442       0.48102633E-01   0.88466484       0.17454141       0.98753789
  2156.2600        1.9488657        1.9914745       0.42608840E-01   0.87741984       0.17245011       0.94160455
  2156.3600        1.8871413        1.9384941       0.51352712E-01   0.86953394       0.16949988       0.89946024
  2156.4600        1.8446625        1.8765124       0.31849947E-01   0.84996387       0.16826805       0.85828051
  2156.5600        1.8014084        1.8209530       0.19544578E-01   0.84214699       0.16896552       0.80984045
  2156.6600        1.7567346        1.7722994       0.15564827E-01   0.83124884       0.16998693       0.77106367
  2156.7600        1.7154865        1.7411652       0.25678738E-01   0.83315643       0.17039468       0.73761409
  2156.8600        1.6925729        1.6858073      -0.67655047E-02   0.81335465       0.16986864       0.70258406
  2156.9600        1.6609668        1.6447052      -0.16261625E-01   0.81849142       0.16909913       0.65711464
  2157.0600        1.6168890        1.6094912      -0.73977782E-02   0.80659494       0.16942035       0.63347594
  2157.1600        1.5998382        1.5876076      -0.12230620E-01   0.80426024       0.17034571       0.61300163
  2157.2600        1.5718516        1.5666304      -0.52212111E-02   0.80748908       0.17013109       0.58901020
  2157.3600        1.5464427        1.5378278      -0.86148172E-02   0.80337958       0.16938083       0.56506743
  2157.4600        1.5300993        1.4968220      -0.33277244E-01   0.78142338       0.17032763       0.54507099
  2157.5600        1.5065461        1.4845958      -0.21950295E-01   0.78219953       0.17214680       0.53024944
  2157.6600        1.4816653        1.4592162      -0.22449106E-01   0.77596519       0.17187748       0.51137351
  2157.7600        1.4619980        1.4381485      -0.23849472E-01   0.77526233       0.17029497       0.49259123
  2157.8600        1.4599191        1.4292657      -0.30653430E-01   0.78017232       0.17082333       0.47827004
  2157.9600        1.4322087        1.4175522      -0.14656517E-01   0.77807673       0.17285178       0.46662366
  2158.0600        1.4213889        1.3980035      -0.23385400E-01   0.77469933       0.17288501       0.45041917
  2158.1600        1.4069594        1.3767923      -0.30167127E-01   0.76786846       0.17152664       0.43739718
  2158.2600        1.3965418        1.3725340      -0.24007742E-01   0.77135119       0.17233868       0.42884416
  2158.3600        1.3782796        1.3752837      -0.29959738E-02   0.77471068       0.17508098       0.42549201
  2158.4600        1.3753238        1.3656401      -0.96836093E-02   0.77634959       0.17667828       0.41261228
  2158.5600        1.3678375        1.3584362      -0.94013480E-02   0.77023603       0.17630608       0.41189407
  2158.6600        1.3531609        1.3565659       0.34049942E-02   0.77311484       0.17492524       0.40852582
  2158.7600        1.3425204        1.3476648       0.51444131E-02   0.76744005       0.17344591       0.40677886
  2158.8600        1.3291762        1.3527403       0.23564032E-01   0.77050620       0.17266545       0.40956860
  2158.9600        1.3372821        1.3580316       0.20749436E-01   0.77293392       0.17280781       0.41228983
  2159.0600        1.3356538        1.3708037       0.35149836E-01   0.77899506       0.17364234       0.41816628
  2159.1600        1.3400483        1.3680741       0.28025882E-01   0.77363333       0.17470898       0.41973183
  2159.2600        1.3348490        1.3821937       0.47344676E-01   0.78082591       0.17540196       0.42596581
  2159.3600        1.3182585        1.3769825       0.58724013E-01   0.77632940       0.17544327       0.42520984
  2159.4600        1.3278907        1.3924794       0.64588772E-01   0.78315223       0.17484829       0.43447891
  2159.5600        1.3320622        1.3984266       0.66364381E-01   0.78482565       0.17420403       0.43939688
  2159.6600        1.3352162        1.4061784       0.70962201E-01   0.78618601       0.17444141       0.44555097
  2159.7600        1.3395912        1.4196774       0.80086174E-01   0.79046742       0.17513960       0.45407039
  2159.8600        1.3484094        1.4165443       0.68134900E-01   0.78658716       0.17492606       0.45503106
  2159.9600        1.3467423        1.4356166       0.88874231E-01   0.79335083       0.17386027       0.46840546
  2160.0600        1.3455259        1.4323891       0.86863161E-01   0.78560297       0.17307290       0.47371321
  2160.1600        1.3727271        1.4469134       0.74186360E-01   0.79454078       0.17294581       0.47942683
  2160.2600        1.3728140        1.4445840       0.71769989E-01   0.78798845       0.17326227       0.48333328
  2160.3600        1.3711373        1.4477914       0.76654143E-01   0.78954601       0.17379015       0.48445527
  2160.4600        1.3879647        1.4585272       0.70562470E-01   0.79558250       0.17429729       0.48864737
  2160.9600        1.4480400        1.4948164       0.46776336E-01   0.79668027       0.17338062       0.52475548
  2161.4600        1.4977610        1.5379548       0.40193735E-01   0.79358012       0.17160711       0.57276753
  2161.9600        1.5464160        1.5970130       0.50597001E-01   0.79021128       0.17254534       0.63425642
  2162.4600        1.5888449        1.6677948       0.78949971E-01   0.79696625       0.17497984       0.69584874
  2162.9600        1.6112288        1.6992124       0.87983675E-01   0.80944499       0.17676990       0.71299755
  2163.4600        1.6280696        1.6901802       0.62110538E-01   0.82733443       0.17897736       0.68386840
  2163.9600        1.6520234        1.6696768       0.17653374E-01   0.84406531       0.18180716       0.64380432
  2164.4600        1.6848780        1.6884435       0.35655889E-02   0.87179015       0.18756977       0.62908363
  2164.9600        1.7177180        1.7264458       0.87278492E-02   0.89223334       0.19297761       0.64123487
  2165.4600        1.7670659        1.7719235       0.48576684E-02   0.91929756       0.19852198       0.65410400
  2165.9600        1.8153720        1.8097237      -0.56482919E-02   0.94127892       0.20675562       0.66168919
  2166.4600        1.8389188        1.8556845       0.16765667E-01   0.97256571       0.21213355       0.67098519
  2166.9600        1.8793998        1.8774458      -0.19539899E-02   0.97672256       0.21723094       0.68349232
  2167.4600        1.9263929        1.9364177       0.10024780E-01    1.0117562       0.22177910       0.70288241
  2167.9600        1.9455837        1.9601236       0.14539899E-01    1.0100685       0.22433078       0.72572440
  2168.4600        1.9656419        2.0097502       0.44108323E-01    1.0244896       0.23104873       0.75421187
  2168.9600        1.9639835        2.0207611       0.56777570E-01    1.0265759       0.23105432       0.76313089
  2169.4600        1.9632263        2.0172407       0.54014385E-01    1.0170889       0.23100045       0.76915140
  2169.9600        1.9505740        1.9835745       0.33000571E-01   0.99673116       0.23104661       0.75579678
  2170.4600        1.9349902        1.9433039       0.83136457E-02   0.98266170       0.22955556       0.73108663
  2170.9600        1.9047834        1.8872461      -0.17537305E-01   0.95203474       0.22869971       0.70651168
  2171.4600        1.8652591        1.8405793      -0.24679798E-01   0.93522418       0.22351613       0.68183903
  2171.9600        1.8226629        1.7921294      -0.30533507E-01   0.91480731       0.21792123       0.65940090
  2172.4600        1.7632342        1.7304874      -0.32746828E-01   0.87838265       0.21457125       0.63753351
  2172.9600        1.7083989        1.6779858      -0.30413061E-01   0.84996434       0.20778314       0.62023832
  2173.4600        1.6552545        1.6265639      -0.28690545E-01   0.82601511       0.20056697       0.59998187
  2173.9600        1.5943673        1.5682830      -0.26084349E-01   0.80044882       0.19340731       0.57442687
  2174.4600        1.5393236        1.5232355      -0.16088105E-01   0.77964741       0.18800454       0.55558356
  2174.9600        1.4777048        1.4762670      -0.14378497E-02   0.76215405       0.18330101       0.53081194
  2175.4600        1.4162363        1.4173488       0.11125030E-02   0.73143095       0.17633167       0.50958615
  2175.9600        1.3798178        1.3601437      -0.19674066E-01   0.71287270       0.16732418       0.47994687
  2176.4600        1.3287811        1.3186333      -0.10147828E-01   0.68949535       0.16069488       0.46844308
  2176.9600        1.2830113        1.2585930      -0.24418311E-01   0.66081329       0.15548521       0.44229447
  2177.4600        1.2383607        1.2280523      -0.10308378E-01   0.64992123       0.15031205       0.42781903
  2177.9600        1.1950958        1.1965167       0.14208454E-02   0.64193049       0.14696948       0.40761671
  2178.4600        1.1677574        1.1677186      -0.38829352E-04   0.62724971       0.14343861       0.39703030
  2178.9600        1.1358209        1.1439065       0.80856313E-02   0.61982592       0.13889988       0.38518070
  2179.4600        1.1157552        1.1189003       0.31450846E-02   0.60737351       0.13664464       0.37488217
  2179.9600        1.1033306        1.0973225      -0.60081528E-02   0.59546094       0.13541570       0.36644583
  2180.4600        1.0744950        1.0733896      -0.11054034E-02   0.58876680       0.13258500       0.35203783
  2180.9600        1.0676764        1.0611412      -0.65351880E-02   0.58333474       0.13050600       0.34730047
  2181.4600        1.0469567        1.0501719       0.32152711E-02   0.58045398       0.12967442       0.34004353
  2181.9600        1.0520768        1.0320468      -0.20030059E-01   0.57484444       0.12785590       0.32934641
  2182.4600        1.0423607        1.0182043      -0.24156395E-01   0.56868768       0.12663600       0.32288064
  2182.9600        1.0278429        1.0176584      -0.10184567E-01   0.57336711       0.12557426       0.31871699
  2183.4600        1.0288446        1.0138930      -0.14951607E-01   0.57264570       0.12668671       0.31456058
  2183.9600        1.0305197        1.0012481      -0.29271669E-01   0.56297135       0.12511258       0.31316414
  2184.4600        1.0329798        1.0042340      -0.28745870E-01   0.56550622       0.12613257       0.31259516
  2184.9600        1.0232250        1.0014118      -0.21813148E-01   0.56372485       0.12540853       0.31227843
  2185.4600        1.0146669        1.0018923      -0.12774624E-01   0.56249318       0.12600694       0.31339213
  2185.9600        1.0170785        1.0019041      -0.15174367E-01   0.56358109       0.12574885       0.31257421
  2186.4600        1.0179784       0.99644853      -0.21529896E-01   0.55924350       0.12530802       0.31189701
  2186.9600        1.0214415       0.99871643      -0.22725059E-01   0.56456877       0.12654609       0.30760157
  2187.4600        1.0135327       0.99388209      -0.19650587E-01   0.55687383       0.12627423       0.31073403
  2187.9600        1.0132843       0.99294023      -0.20344026E-01   0.55883189       0.12763276       0.30647558
  2188.4600        1.0195285       0.98550099      -0.34027515E-01   0.55505879       0.12648825       0.30395396
  2188.9600        1.0156607       0.98592627      -0.29734388E-01   0.56029531       0.12374671       0.30188425
  2189.4600        1.0103392       0.98547129      -0.24867934E-01   0.55788536       0.12623102       0.30135491
  2189.9600        1.0077118       0.98490562      -0.22806153E-01   0.55643924       0.12534048       0.30312590
  2190.4600        1.0013825       0.97590174      -0.25480773E-01   0.55194142       0.12597895       0.29798137
  2190.9600        1.0043126       0.98006507      -0.24247527E-01   0.55830199       0.12511316       0.29664992
  2191.4600       0.99385032       0.98262953      -0.11220791E-01   0.55870216       0.12568806       0.29823930
  2191.9600       0.99409127       0.97114851      -0.22942763E-01   0.54970570       0.12449672       0.29694609
  2192.4600       0.99498149       0.97101529      -0.23966196E-01   0.54931460       0.12681047       0.29489022
  2192.9600       0.98898656       0.97306151      -0.15925054E-01   0.54760225       0.12637484       0.29908442
  2193.4600       0.99084584       0.97469378      -0.16152060E-01   0.54973039       0.12713288       0.29783050
  2193.9600       0.99743411       0.97731101      -0.20123095E-01   0.55062110       0.12753138       0.29915854
  2194.4600       0.98876458       0.97256677      -0.16197808E-01   0.54956937       0.12642050       0.29657690
  2194.9600       0.99212105       0.97470856      -0.17412485E-01   0.54835742       0.12809778       0.29825336
  2195.4600       0.99192108       0.97761936      -0.14301719E-01   0.55094159       0.12706369       0.29961408
  2195.9600       0.98671593       0.97718707      -0.95288587E-02   0.54956942       0.12689873       0.30071893
  2196.4600       0.98779996       0.98128961      -0.65103480E-02   0.55022101       0.12829081       0.30277779
  2196.9600       0.98855936       0.97363491      -0.14924451E-01   0.54642819       0.12715285       0.30005387
  2197.4600       0.99881066       0.97876171      -0.20048954E-01   0.55150942       0.12757715       0.29967513
  2197.9600       0.98792684       0.98327019      -0.46566553E-02   0.55138454       0.12857471       0.30331094
  2198.4600       0.99006715       0.97988159      -0.10185551E-01   0.54968945       0.12941780       0.30077434
  2198.9600       0.99719809       0.98182268      -0.15375412E-01   0.55474356       0.12949664       0.29758248
  2199.4600        1.0022795       0.98506441      -0.17215070E-01   0.55772707       0.13066772       0.29666962
  2199.9600        1.0059557       0.99044847      -0.15507265E-01   0.56524866       0.13120891       0.29399090
  2200.4600       0.99982514       0.97657518      -0.23249954E-01   0.55456859       0.13172500       0.29028159
  2201.4600        1.0007334       0.98585007      -0.14883353E-01   0.56421339       0.13219542       0.28944126
  2202.4600        1.0053290       0.98020135      -0.25127616E-01   0.56936201       0.13199897       0.27884037
  2203.4600        1.0171343       0.98083333      -0.36300969E-01   0.57170052       0.13407268       0.27506013
  2204.4600        1.0264491       0.98380067      -0.42648484E-01   0.58120728       0.13389662       0.26869677
  2205.4600        1.0244987       0.98336275      -0.41135967E-01   0.58128290       0.13435382       0.26772602
  2206.4600        1.0300488       0.99478592      -0.35262863E-01   0.59593415       0.13754165       0.26131013
  2207.4600        1.0381136       0.99568862      -0.42424939E-01   0.60063414       0.13733774       0.25771674
  2208.4600        1.0480777        1.0046139      -0.43463744E-01   0.60937675       0.13807486       0.25716232
  2209.4600        1.0588461        1.0064865      -0.52359658E-01   0.60829874       0.13973671       0.25845100
  2210.4600        1.0681997        1.0142523      -0.53947405E-01   0.61655821       0.14266829       0.25502582
  2211.4600        1.0790069        1.0366524      -0.42354508E-01   0.63176655       0.14378486       0.26110101
  2212.4600        1.0884381        1.0347037      -0.53734351E-01   0.63080933       0.14376364       0.26013074
  2213.4600        1.0926896        1.0585743      -0.34115338E-01   0.64533979       0.14468660       0.26854787
  2214.4600        1.1107938        1.0737412      -0.37052611E-01   0.65589172       0.14550782       0.27234163
  2215.4600        1.1214120        1.0877012      -0.33710777E-01   0.66001490       0.14921675       0.27846960
  2216.4600        1.1427674        1.1191318      -0.23635580E-01   0.67214197       0.14988366       0.29710619
  2217.4600        1.1572667        1.1187934      -0.38473355E-01   0.67539499       0.14910918       0.29428918
  2218.4600        1.1716497        1.1551989      -0.16450787E-01   0.69236582       0.15209421       0.31073891
  2219.4600        1.1843417        1.1738776      -0.10464189E-01   0.69917832       0.15447272       0.32022651
  2220.4600        1.1985939        1.1809746      -0.17619377E-01   0.70363920       0.15609158       0.32124377
  2221.4600        1.2162136        1.2054164      -0.10797240E-01   0.71910390       0.15820575       0.32810671
  2222.4600        1.2228006        1.2196291      -0.31715083E-02   0.73083904       0.15993392       0.32885610
  2223.4600        1.2401489        1.2367619      -0.33870332E-02   0.74189137       0.16298222       0.33188827
  2224.4600        1.2642855        1.2457238      -0.18561689E-01   0.75164463       0.16470674       0.32937240
  2225.4600        1.2739831        1.2512411      -0.22742033E-01   0.75910297       0.16772204       0.32441605
  2226.4600        1.2780844        1.2576738      -0.20410624E-01   0.76647750       0.16969327       0.32150303
  2227.4600        1.2969590        1.2599692      -0.36989836E-01   0.77113558       0.16959136       0.31924225
  2228.4600        1.3135612        1.2728797      -0.40681490E-01   0.78072122       0.17248789       0.31967057
  2229.4600        1.3209670        1.2938519      -0.27115132E-01   0.79508899       0.17451510       0.32424776
  2230.4600        1.3434901        1.2975437      -0.45946407E-01   0.80235999       0.17556547       0.31961821
  2231.4600        1.3534348        1.3148489      -0.38585903E-01   0.81083391       0.17752116       0.32649384
  2232.4600        1.3560922        1.3337748      -0.22317423E-01   0.81396122       0.17840104       0.34141256
  2233.4600        1.3728349        1.3405922      -0.32242703E-01   0.82368984       0.17953801       0.33736437
  2234.4600        1.3921117        1.3518683      -0.40243341E-01   0.83519079       0.18090550       0.33577204
  2235.4600        1.3899335        1.3617658      -0.28167690E-01   0.84501801       0.18125248       0.33549534
  2236.4600        1.3975671        1.3681476      -0.29419450E-01   0.84845591       0.18278465       0.33690704
  2237.4600        1.4219847        1.3778084      -0.44176205E-01   0.85517967       0.18373349       0.33889529
  2238.4600        1.4372204        1.3841919      -0.53028577E-01   0.86524353       0.18369336       0.33525497
