# XDI/1.0 Athena/0.9.26
# Element.edge:                  K
# Element.symbol:                P
# Column.1:                      energy eV
# Column.2:                      data
# Column.3:                      fit
# Column.4:                      residual
# Column.5:                      Pi_Fe_GoethSorb_std.xmu
# Column.6:                      Po_Na_AMP_std.xmu
# Athena.e0:                     2154
# Athena.eshift:                 0
# Athena.rbkg:                   1.0
# Athena.importance:             1
# Athena.standard:               None
# Athena.bkg_kweight:            2
# Athena.edge_step:              0.0989989
# Athena.fixed_step:             no
# Athena.pre_edge_range:         -26.3 -16.3
# Athena.pre_edge_line:          5.834481 - 0.00263304 * E
# Athena.normalization_range:    26 40
# Athena.post_edge_polynomial:   4.557964 - 0.00199446 * E + 0 * E^2 + 0 * E^3
# Athena.spline_range_energy:    0.000 86.616
# Athena.clamps:                 0 24
# Athena.spline_range_k:         0.000 4.768
# Athena.kweight:                2
# Athena.window:                 hanning
# Athena.phase_correction:       no
# Athena.k_range:                2.768 3.000
# Athena.dk:                     1
# Athena.r_range:                1 3
# Athena.dr:                     0.0
# Athena.window:                 hanning
# Athena.plot_multiplier:        1
# Athena.y_offset:               0
# ///
# LCF fit of BSLE_0013-solid_P-XANES.xmu as flattened mu(E) from 2144 to 2184
# Fit included 212 data points and 2 variables, and approximately 85.792 measurements
# Weights sum to 1: no
# Weights forced between 0 and 1: yes
# Overall e0 shift used: no
# Noise added to data: 0
# R-factor = 0.0007820
# Chi-square = 0.42652
# Reduced chi-square = 0.0020214
# .    standard             weight           e0
# ========================================================
# .   Pi_Fe_GoethSorb_std.xmu  0.433 (0.008)    0.000 (0.000)
# .   Po_Na_AMP_std.xmu     0.578 (0.006)    0.000 (0.000)
# .         sum ........... 1.012
#------------------------
#  energy data fit residual Po_Na_AMP_std.xmu Pi_Fe_GoethSorb_std.xmu
  2125.4600      -0.29271032E-01   0.82602343E-01   0.11187337       0.10903046E-01   0.71699296E-01
  2127.4600       0.28008969E-02  -0.14936118E-01  -0.17737015E-01   0.11824664E-02  -0.16118584E-01
  2129.4600       0.65593802E-02  -0.16294948E-01  -0.22854329E-01  -0.33824574E-02  -0.12912491E-01
  2131.4600      -0.15167268E-01  -0.14601337E-01   0.56593077E-03  -0.29329103E-02  -0.11668427E-01
  2133.4600       0.32277415E-02  -0.17560262E-01  -0.20788003E-01  -0.11744048E-02  -0.16385857E-01
  2135.4600      -0.11956843E-02  -0.33116683E-01  -0.31920998E-01   0.10986950E-02  -0.34215378E-01
  2137.4600       0.37749337E-02   0.32097884E-01   0.28322950E-01  -0.40437238E-02   0.36141608E-01
  2139.4600       0.10787998E-02   0.33693468E-01   0.32614668E-01   0.66997765E-02   0.26993692E-01
  2140.4600       0.32625038E-01  -0.10595747E-01  -0.43220785E-01  -0.18772995E-02  -0.87184474E-02
  2140.6600       0.19822962E-01  -0.37655671E-03  -0.20199519E-01  -0.35386515E-02   0.31620948E-02
  2140.7600       0.25573574E-01   0.36387112E-02  -0.21934863E-01  -0.35381829E-02   0.71768941E-02
  2140.8600       0.95057621E-02   0.64284840E-02  -0.30772781E-02  -0.22884903E-02   0.87169743E-02
  2140.9600       0.48825217E-02   0.11205196E-01   0.63226739E-02  -0.13711180E-02   0.12576314E-01
  2141.0600       0.98149431E-02   0.17653750E-01   0.78388073E-02  -0.90306653E-03   0.18556817E-01
  2141.1600       0.20919150E-01   0.22876920E-01   0.19577700E-02   0.79500682E-04   0.22797419E-01
  2141.2600       0.11932225E-01   0.26760437E-01   0.14828212E-01   0.13778174E-02   0.25382620E-01
  2141.3600       0.12483111E-02   0.31202967E-01   0.29954656E-01   0.19291590E-02   0.29273808E-01
  2141.4600       0.18120259E-01   0.35401961E-01   0.17281702E-01   0.14551368E-02   0.33946824E-01
  2141.5600       0.23052680E-01   0.36721201E-01   0.13668521E-01   0.33368859E-03   0.36387512E-01
  2141.6600       0.11762699E-01   0.36797802E-01   0.25035103E-01  -0.52703749E-03   0.37324840E-01
  2141.7600       0.24897232E-01   0.40119502E-01   0.15222270E-01   0.53564518E-04   0.40065937E-01
  2141.8600       0.17334565E-01   0.44062026E-01   0.26727462E-01   0.14201007E-02   0.42641926E-01
  2141.9600       0.19337661E-01   0.40969740E-01   0.21632079E-01   0.16340297E-02   0.39335710E-01
  2142.0600       0.21209442E-01   0.30667306E-01   0.94578644E-02   0.78584841E-03   0.29881458E-01
  2142.1600       0.13970011E-01   0.18649456E-01   0.46794452E-02   0.44242135E-03   0.18207035E-01
  2142.2600       0.21850747E-02   0.75991597E-02   0.54140850E-02   0.50974372E-03   0.70894160E-02
  2142.3600       0.15097383E-01  -0.20472218E-02  -0.17144605E-01  -0.31310767E-03  -0.17341142E-02
  2142.4600       0.26848062E-01  -0.94019288E-02  -0.36249990E-01  -0.18179329E-02  -0.75839959E-02
  2142.5600       0.40901796E-01  -0.13375298E-01  -0.54277094E-01  -0.26819342E-02  -0.10693364E-01
  2142.6600       0.38975556E-01  -0.15721700E-01  -0.54697256E-01  -0.26450944E-02  -0.13076606E-01
  2142.7600       0.34726057E-01  -0.20113300E-01  -0.54839357E-01  -0.22697442E-02  -0.17843556E-01
  2142.8600       0.24860334E-01  -0.26099243E-01  -0.50959576E-01  -0.18510665E-02  -0.24248176E-01
  2142.9600       0.84086792E-02  -0.30203864E-01  -0.38612544E-01  -0.14612502E-02  -0.28742614E-01
  2143.0600       0.24361425E-01  -0.31750705E-01  -0.56112130E-01  -0.11566434E-02  -0.30594062E-01
  2143.1600       0.33334295E-01  -0.32226082E-01  -0.65560377E-01  -0.97901734E-03  -0.31247065E-01
  2143.2600       0.19549337E-01  -0.32338949E-01  -0.51888286E-01  -0.86843071E-03  -0.31470519E-01
  2143.3600       0.37310184E-01  -0.32156057E-01  -0.69466240E-01  -0.68148439E-03  -0.31474572E-01
  2143.4600       0.38242560E-01  -0.31729765E-01  -0.69972325E-01  -0.19326902E-03  -0.31536496E-01
  2143.5600       0.35982983E-01  -0.31125031E-01  -0.67108013E-01   0.85343807E-03  -0.31978469E-01
  2143.6600       0.44107359E-01  -0.30570756E-01  -0.74678114E-01   0.22852128E-02  -0.32855969E-01
  2143.7600       0.40272006E-01  -0.30368640E-01  -0.70640645E-01   0.36225688E-02  -0.33991208E-01
  2143.8600       0.31184069E-01  -0.30025031E-01  -0.61209100E-01   0.47764077E-02  -0.34801439E-01
  2143.9600       0.22833515E-01  -0.28526934E-01  -0.51360449E-01   0.59463205E-02  -0.34473255E-01
  2144.0600       0.17159758E-01  -0.26273261E-01  -0.43433019E-01   0.70641724E-02  -0.33337434E-01
  2144.1600       0.32183200E-01  -0.24674211E-01  -0.56857411E-01   0.78716171E-02  -0.32545828E-01
  2144.2600       0.36428745E-01  -0.23854827E-01  -0.60283572E-01   0.84335276E-02  -0.32288354E-01
  2144.3600       0.10987092E-01  -0.22996953E-01  -0.33984044E-01   0.90302348E-02  -0.32027187E-01
  2144.4600       0.20778153E-01  -0.22272023E-01  -0.43050176E-01   0.93865995E-02  -0.31658622E-01
  2144.5600       0.59306907E-01  -0.22468425E-01  -0.81775332E-01   0.88863283E-02  -0.31354754E-01
  2144.6600       0.43380511E-01  -0.21927916E-01  -0.65308426E-01   0.82704826E-02  -0.30198398E-01
  2144.7600       0.66080806E-01  -0.17407890E-01  -0.83488696E-01   0.91806583E-02  -0.26588548E-01
  2144.8600       0.52033219E-01  -0.10323446E-01  -0.62356665E-01   0.10997318E-01  -0.21320764E-01
  2144.9600       0.34531047E-01  -0.53976020E-02  -0.39928649E-01   0.11524607E-01  -0.16922209E-01
  2145.0600       0.46988805E-01  -0.27303867E-02  -0.49719192E-01   0.11292043E-01  -0.14022430E-01
  2145.1600       0.47719159E-01   0.10852790E-02  -0.46633880E-01   0.12730402E-01  -0.11645123E-01
  2145.2600       0.40186796E-01   0.77031308E-02  -0.32483665E-01   0.14859594E-01  -0.71564630E-02
  2145.3600       0.53765778E-01   0.17310894E-01  -0.36454884E-01   0.14311021E-01   0.29998735E-02
  2145.4600       0.51132458E-01   0.29395503E-01  -0.21736955E-01   0.11828383E-01   0.17567120E-01
  2145.5600       0.45236477E-01   0.42610373E-01  -0.26261034E-02   0.11142097E-01   0.31468277E-01
  2145.6600       0.32724260E-01   0.50774709E-01   0.18050450E-01   0.12597375E-01   0.38177334E-01
  2145.7600       0.58020544E-01   0.44969515E-01  -0.13051028E-01   0.13986399E-01   0.30983116E-01
  2145.8600       0.38346631E-01   0.30740167E-01  -0.76064636E-02   0.14777835E-01   0.15962332E-01
  2145.9600       0.38945671E-01   0.23873985E-01  -0.15071686E-01   0.15744062E-01   0.81299231E-02
  2146.0600       0.51433732E-01   0.25988637E-01  -0.25445095E-01   0.17097815E-01   0.88908218E-02
  2146.1600       0.49366075E-01   0.28040910E-01  -0.21325165E-01   0.18591612E-01   0.94492983E-02
  2146.2600       0.44136767E-01   0.27717243E-01  -0.16419524E-01   0.19924289E-01   0.77929540E-02
  2146.3600       0.55119761E-01   0.27986799E-01  -0.27132962E-01   0.20793365E-01   0.71934341E-02
  2146.4600       0.58930958E-01   0.30189587E-01  -0.28741371E-01   0.21358592E-01   0.88309949E-02
  2146.5600       0.62176492E-01   0.34247496E-01  -0.27928995E-01   0.22127962E-01   0.12119534E-01
  2146.6600       0.88573798E-01   0.39193868E-01  -0.49379930E-01   0.23495518E-01   0.15698350E-01
  2146.7600       0.63768515E-01   0.43590528E-01  -0.20177987E-01   0.25730666E-01   0.17859862E-01
  2146.8600       0.68408004E-01   0.48758690E-01  -0.19649313E-01   0.28653624E-01   0.20105067E-01
  2146.9600       0.79279885E-01   0.57881297E-01  -0.21398588E-01   0.31770640E-01   0.26110657E-01
  2147.0600       0.73323297E-01   0.70074572E-01  -0.32487243E-02   0.35027225E-01   0.35047348E-01
  2147.1600       0.84376998E-01   0.81378568E-01  -0.29984297E-02   0.38686552E-01   0.42692016E-01
  2147.2600       0.76662814E-01   0.89198941E-01   0.12536127E-01   0.42612434E-01   0.46586507E-01
  2147.3600       0.73140596E-01   0.92232791E-01   0.19092195E-01   0.46390393E-01   0.45842398E-01
  2147.4600       0.72375984E-01   0.91859878E-01   0.19483894E-01   0.50136169E-01   0.41723709E-01
  2147.5600       0.10468245       0.91376276E-01  -0.13306172E-01   0.54361268E-01   0.37015008E-01
  2147.6600       0.87877253E-01   0.92234139E-01   0.43568859E-02   0.59309318E-01   0.32924822E-01
  2147.7600       0.95264247E-01   0.94430379E-01  -0.83386838E-03   0.64973996E-01   0.29456383E-01
  2147.8600       0.97267343E-01   0.97994116E-01   0.72677310E-03   0.70811870E-01   0.27182246E-01
  2147.9600       0.10719982       0.10293556      -0.42642628E-02   0.75924382E-01   0.27011176E-01
  2148.0600       0.10183920       0.10817967       0.63404749E-02   0.80211897E-01   0.27967776E-01
  2148.1600       0.11165046       0.11204174       0.39127910E-03   0.84181660E-01   0.27860081E-01
  2148.2600       0.12306780       0.11620893      -0.68588763E-02   0.88113956E-01   0.28094971E-01
  2148.3600       0.13882863       0.12458729      -0.14241336E-01   0.92091108E-01   0.32496184E-01
  2148.4600       0.14892272       0.13526430      -0.13658418E-01   0.96027441E-01   0.39236864E-01
  2148.5600       0.12795587       0.14227961       0.14323746E-01   0.99762459E-01   0.42517153E-01
  2148.6600       0.13142362       0.14678445       0.15360822E-01   0.10389260       0.42891846E-01
  2148.7600       0.14728546       0.15508303       0.77975719E-02   0.10947046       0.45612577E-01
  2148.8600       0.14722793       0.16746930       0.20241377E-01   0.11563296       0.51836348E-01
  2148.9600       0.17727174       0.17971512       0.24433846E-02   0.12019643       0.59518691E-01
  2149.0600       0.17046666       0.19068512       0.20218468E-01   0.12341767       0.67267459E-01
  2149.1600       0.17959104       0.20165849       0.22067443E-01   0.12731100       0.74347491E-01
  2149.2600       0.19091747       0.21307908       0.22161604E-01   0.13168734       0.81391734E-01
  2149.3600       0.19841558       0.22480114       0.26385561E-01   0.13474740       0.90053739E-01
  2149.4600       0.22648967       0.23819327       0.11703601E-01   0.13649884       0.10169443
  2149.5600       0.25122029       0.25564752       0.44272266E-02   0.13831587       0.11733165
  2149.6600       0.27263775       0.27725191       0.46141647E-02   0.14072918       0.13652273
  2149.7600       0.30347955       0.30152014      -0.19594031E-02   0.14362692       0.15789322
  2149.8600       0.31655347       0.33025134       0.13697865E-01   0.14740334       0.18284800
  2149.9600       0.37402183       0.36775150      -0.62703352E-02   0.15283767       0.21491382
  2150.0600       0.40517677       0.41752732       0.12350552E-01   0.16045014       0.25707718
  2150.1600       0.47996855       0.48211700       0.21484490E-02   0.17057409       0.31154291
  2150.2600       0.55331587       0.55951656       0.62006861E-02   0.18384489       0.37567167
  2150.3600       0.63698654       0.64472326       0.77367197E-02   0.20106050       0.44366276
  2150.4600       0.73384928       0.73989616       0.60468774E-02   0.22191783       0.51797833
  2150.5600       0.87394482       0.85212057      -0.21824244E-01   0.24538101       0.60673956
  2150.6600        1.0340608       0.97881206      -0.55248723E-01   0.27218088       0.70663118
  2150.7600        1.1871969        1.1107259      -0.76470944E-01   0.30436332       0.80636260
  2150.8600        1.3444845        1.2518021      -0.92682446E-01   0.34308489       0.90871719
  2150.9600        1.4999742        1.4164018      -0.83572373E-01   0.38887181        1.0275300
  2151.0600        1.7295455        1.6209811      -0.10856439       0.44345292        1.1775281
  2151.1600        1.9826624        1.8832742      -0.99388258E-01   0.50954971        1.3737245
  2151.2600        2.2859214        2.2191039      -0.66817544E-01   0.59069846        1.6284054
  2151.3600        2.6661812        2.6411007      -0.25080516E-01   0.69098955        1.9501112
  2151.4600        3.0977649        3.1365305       0.38765666E-01   0.81371457        2.3228160
  2151.5600        3.6053897        3.6732122       0.67822454E-01   0.96115182        2.7120604
  2151.6600        4.0887921        4.2192009       0.13040879        1.1297841        3.0894169
  2151.7600        4.6296699        4.7432164       0.11354649        1.3119505        3.4312659
  2151.8600        5.1108904        5.2154372       0.10454680        1.5044465        3.7109908
  2151.9600        5.5561712        5.6089078       0.52736607E-01    1.7070210        3.9018868
  2152.0600        5.9117742        5.9229434       0.11169182E-01    1.9110660        4.0118774
  2152.1600        6.2044068        6.1760134      -0.28393362E-01    2.1019818        4.0740316
  2152.2600        6.3943614        6.3714365      -0.22924922E-01    2.2726605        4.0987760
  2152.3600        6.4791331        6.5012131       0.22079960E-01    2.4215499        4.0796632
  2152.4600        6.5581573        6.5681806       0.10023319E-01    2.5421551        4.0260255
  2152.5600        6.5371500        6.5833643       0.46214276E-01    2.6247577        3.9586066
  2152.6600        6.5004254        6.5521217       0.51696267E-01    2.6699715        3.8821502
  2152.7600        6.4476905        6.4750998       0.27409246E-01    2.6859601        3.7891397
  2152.8600        6.3152073        6.3501728       0.34965520E-01    2.6738794        3.6762934
  2152.9600        6.0995918        6.1738942       0.74302396E-01    2.6297475        3.5441467
  2153.0600        5.9349062        5.9535972       0.18691052E-01    2.5556577        3.3979395
  2153.1600        5.6905833        5.7044895       0.13906171E-01    2.4582192        3.2462703
  2153.2600        5.4419675        5.4350422      -0.69252850E-02    2.3401155        3.0949266
  2153.3600        5.1970082        5.1485340      -0.48474211E-01    2.2014182        2.9471158
  2153.4600        4.9143516        4.8504736      -0.63877953E-01    2.0496658        2.8008078
  2153.5600        4.6245838        4.5482655      -0.76318213E-01    1.8977656        2.6504999
  2153.6600        4.3000681        4.2504572      -0.49610887E-01    1.7521647        2.4982925
  2153.7600        4.0314823        3.9660300      -0.65452318E-01    1.6140964        2.3519336
  2153.8600        3.7222395        3.6978561      -0.24383387E-01    1.4827796        2.2150765
  2153.9600        3.5062255        3.4443211      -0.61904395E-01    1.3562733        2.0880478
  2154.0600        3.2361361        3.2071741      -0.28961968E-01    1.2369395        1.9702347
  2154.1600        3.0506941        2.9905065      -0.60187552E-01    1.1301312        1.8603753
  2154.2600        2.8620904        2.7933807      -0.68709717E-01    1.0360460        1.7573347
  2154.3600        2.6829212        2.6112810      -0.71640231E-01   0.95112744        1.6601536
  2154.4600        2.4929034        2.4447739      -0.48129473E-01   0.87592101        1.5688529
  2154.5600        2.3605529        2.2982225      -0.62330362E-01   0.81389645        1.4843261
  2154.6600        2.2484552        2.1731955      -0.75259607E-01   0.76391636        1.4092792
  2154.7600        2.1721053        2.0687085      -0.10339674       0.72137973        1.3473288
  2154.8600        2.0553206        1.9788850      -0.76435639E-01   0.68379243        1.2950925
  2154.9600        1.9876779        1.8947177      -0.92960227E-01   0.65044604        1.2442716
  2155.0600        1.9141462        1.8159490      -0.98197253E-01   0.62205727        1.1938917
  2155.1600        1.8520793        1.7486850      -0.10339435       0.60020015        1.1484848
  2155.2600        1.7809820        1.6925432      -0.88438844E-01   0.58339008        1.1091531
  2155.3600        1.7290768        1.6422788      -0.86798098E-01   0.56797941        1.0742993
  2155.4600        1.6634948        1.5965167      -0.66978046E-01   0.55343871        1.0430780
  2155.5600        1.6619134        1.5567264      -0.10518702       0.54152416        1.0152022
  2155.6600        1.6021799        1.5209204      -0.81259416E-01   0.53163352       0.98928691
  2155.7600        1.5767800        1.4849131      -0.91866973E-01   0.52152802       0.96338504
  2155.8600        1.5203092        1.4522781      -0.68031009E-01   0.51232461       0.93995354
  2155.9600        1.5123439        1.4317377      -0.80606145E-01   0.50747735       0.92426038
  2156.0600        1.4700752        1.4190121      -0.51063054E-01   0.50627277       0.91273936
  2156.1600        1.4443117        1.4007310      -0.43580686E-01   0.50494616       0.89578487
  2156.2600        1.4604679        1.3787869      -0.81680978E-01   0.50277367       0.87601326
  2156.3600        1.4390782        1.3660248      -0.73053414E-01   0.50129595       0.86472887
  2156.4600        1.4022843        1.3606732      -0.41611148E-01   0.50000678       0.86066642
  2156.5600        1.3916928        1.3502877      -0.41405035E-01   0.49695591       0.85333183
  2156.6600        1.3896366        1.3343322      -0.55304421E-01   0.49283457       0.84149765
  2156.7600        1.3431356        1.3211744      -0.21961159E-01   0.49019002       0.83098440
  2156.8600        1.3245742        1.3120856      -0.12488628E-01   0.48848806       0.82359753
  2156.9600        1.3391041        1.3030010      -0.36103090E-01   0.48507573       0.81792532
  2157.0600        1.3283913        1.2943938      -0.33997513E-01   0.48164082       0.81275301
  2157.1600        1.3106482        1.2899564      -0.20691785E-01   0.48284211       0.80711428
  2157.2600        1.3181275        1.2877037      -0.30423829E-01   0.48716587       0.80053781
  2157.3600        1.3179300        1.2818686      -0.36061392E-01   0.48877351       0.79309508
  2157.4600        1.3091061        1.2764432      -0.32662910E-01   0.48909201       0.78735118
  2157.5600        1.3163834        1.2819932      -0.34390245E-01   0.49463559       0.78735758
  2157.6600        1.2846401        1.2939134       0.92733545E-02   0.50306948       0.79084395
  2157.7600        1.2943922        1.2968154       0.24232601E-02   0.50574449       0.79107094
  2157.8600        1.2766389        1.2906497       0.14010795E-01   0.50296355       0.78768614
  2157.9600        1.2722696        1.2867638       0.14494208E-01   0.50166866       0.78509516
  2158.0600        1.3040825        1.2871595      -0.16923043E-01   0.50315571       0.78400380
  2158.1600        1.2836525        1.2867095       0.30569840E-02   0.50438848       0.78232098
  2158.2600        1.2538587        1.2846436       0.30784912E-01   0.50451245       0.78013113
  2158.3600        1.2771362        1.2835472       0.64110209E-02   0.50447304       0.77907414
  2158.4600        1.2669789        1.2839123       0.16933389E-01   0.50573504       0.77817728
  2158.5600        1.2825594        1.2846302       0.20708437E-02   0.50994161       0.77468860
  2158.6600        1.2738163        1.2857437       0.11927433E-01   0.51595555       0.76978817
  2158.7600        1.2832855        1.2880849       0.47993392E-02   0.52065715       0.76742773
  2158.8600        1.2551584        1.2905532       0.35394828E-01   0.52334066       0.76721258
  2158.9600        1.2519609        1.2907578       0.38796985E-01   0.52513079       0.76562706
  2159.0600        1.2507936        1.2894903       0.38696659E-01   0.52614816       0.76334214
  2159.1600        1.2586568        1.2897759       0.31119077E-01   0.52577253       0.76400335
  2159.2600        1.2668836        1.2910219       0.24138304E-01   0.52440540       0.76661653
  2159.3600        1.2679184        1.2901500       0.22231576E-01   0.52322677       0.76692324
  2159.4600        1.2479631        1.2892241       0.41260984E-01   0.52307702       0.76614709
  2159.5600        1.2693517        1.2938535       0.24501751E-01   0.52447676       0.76937669
  2159.6600        1.2824473        1.3027264       0.20279138E-01   0.52730480       0.77542160
  2159.7600        1.2716638        1.3094547       0.37790959E-01   0.53092388       0.77853084
  2159.8600        1.2825270        1.3124588       0.29931791E-01   0.53427271       0.77818605
  2159.9600        1.2711071        1.3139213       0.42814168E-01   0.53607595       0.77784532
  2160.0600        1.2763642        1.3154302       0.39066026E-01   0.53658689       0.77884332
  2160.1600        1.2724292        1.3179776       0.45548369E-01   0.53717919       0.78079843
  2160.2600        1.2943835        1.3216043       0.27220819E-01   0.53831942       0.78328488
  2160.3600        1.3119841        1.3256294       0.13645280E-01   0.53975250       0.78587692
  2160.4600        1.2753822        1.3293781       0.53995944E-01   0.54120477       0.78817335
  2160.9600        1.3049606        1.3422811       0.37320569E-01   0.54251807       0.79976307
  2161.4600        1.3224378        1.3570026       0.34564837E-01   0.54027922       0.81672343
  2161.9600        1.3503293        1.3645098       0.14180439E-01   0.53588280       0.82862695
  2162.4600        1.3883825        1.3961836       0.78010825E-02   0.53721388       0.85896974
  2162.9600        1.4382541        1.4235013      -0.14752760E-01   0.54555223       0.87794910
  2163.4600        1.4483474        1.4566220       0.82745921E-02   0.55213822       0.90448378
  2163.9600        1.5123605        1.4983229      -0.14037623E-01   0.56039147       0.93793144
  2164.4600        1.5510905        1.5359117      -0.15178873E-01   0.56878640       0.96712526
  2164.9600        1.5653051        1.5739796       0.86745233E-02   0.58043484       0.99354481
  2165.4600        1.6120857        1.6180552       0.59694280E-02   0.59488032        1.0231748
  2165.9600        1.6205932        1.6463612       0.25767992E-01   0.60772999        1.0386312
  2166.4600        1.6561413        1.6884252       0.32283889E-01   0.62039957        1.0680256
  2166.9600        1.6668104        1.7096963       0.42885866E-01   0.62277349        1.0869228
  2167.4600        1.6938332        1.6987936       0.49603332E-02   0.62429162        1.0745019
  2167.9600        1.6827950        1.7085291       0.25734135E-01   0.63116800        1.0773611
  2168.4600        1.6918176        1.7056589       0.13841333E-01   0.63927255        1.0663864
  2168.9600        1.6626075        1.7176279       0.55020471E-01   0.64814878        1.0694792
  2169.4600        1.6555592        1.7067174       0.51158200E-01   0.64737654        1.0593408
  2169.9600        1.6586019        1.6939339       0.35332012E-01   0.65128870        1.0426452
  2170.4600        1.6275938        1.6806927       0.53098958E-01   0.64417073        1.0365220
  2170.9600        1.5963937        1.6458282       0.49434516E-01   0.63899846        1.0068298
  2171.4600        1.5685573        1.6036000       0.35042682E-01   0.62616769       0.97743232
  2171.9600        1.5308218        1.5740213       0.43199484E-01   0.61570530       0.95831603
  2172.4600        1.5037127        1.5404874       0.36774643E-01   0.60039723       0.94009015
  2172.9600        1.4714015        1.5077401       0.36338510E-01   0.58382655       0.92391350
  2173.4600        1.4356055        1.4620862       0.26480735E-01   0.56783594       0.89425026
  2173.9600        1.4003246        1.4172567       0.16932138E-01   0.55775543       0.85950126
  2174.4600        1.3487808        1.3867397       0.37958882E-01   0.53987692       0.84686279
  2174.9600        1.3057928        1.3418360       0.36043243E-01   0.52196987       0.81986614
  2175.4600        1.2770675        1.2879914       0.10923927E-01   0.49997987       0.78801153
  2175.9600        1.2258167        1.2539789       0.28162189E-01   0.48798872       0.76599015
  2176.4600        1.1915156        1.2286755       0.37159880E-01   0.48019280       0.74848265
  2176.9600        1.1558306        1.2024531       0.46622506E-01   0.47731395       0.72513916
  2177.4600        1.1460550        1.1717580       0.25702977E-01   0.46900713       0.70275088
  2177.9600        1.1061680        1.1431820       0.37014001E-01   0.45835791       0.68482409
  2178.4600        1.0898368        1.1085889       0.18752072E-01   0.44692083       0.66166803
  2178.9600        1.0677277        1.0878796       0.20151845E-01   0.43794970       0.64992989
  2179.4600        1.0484773        1.0789181       0.30440767E-01   0.43529802       0.64362005
  2179.9600        1.0565504        1.0672680       0.10717615E-01   0.43314915       0.63411887
  2180.4600        1.0203099        1.0673638       0.47053884E-01   0.43705973       0.63030403
  2180.9600        1.0231405        1.0562259       0.33085444E-01   0.43798791       0.61823803
  2181.4600        1.0144356        1.0498938       0.35458203E-01   0.43560755       0.61428629
  2181.9600        1.0013267        1.0333730       0.32046334E-01   0.43502570       0.59834731
  2182.4600       0.99570266        1.0135970       0.17894316E-01   0.43007932       0.58351766
  2182.9600       0.98653314        1.0032116       0.16678445E-01   0.42873055       0.57448104
  2183.4600       0.96717160       0.99567861       0.28507017E-01   0.42699605       0.56868256
  2183.9600       0.98111345       0.99627367       0.15160226E-01   0.43145594       0.56481773
  2184.4600       0.99489368       0.99825444       0.33607604E-02   0.43369274       0.56456170
  2184.9600       0.97926955       0.99237978       0.13110225E-01   0.42952400       0.56285578
  2185.4600       0.99228210       0.98184674      -0.10435363E-01   0.42266542       0.55918132
  2185.9600       0.98947629       0.99006277       0.58647481E-03   0.42545639       0.56460637
  2186.4600       0.98108456       0.99072103       0.96364653E-02   0.42424268       0.56647835
  2186.9600       0.98805664       0.97629807      -0.11758573E-01   0.42156474       0.55473332
  2187.4600       0.98287707       0.97255884      -0.10318232E-01   0.41155206       0.56100678
  2187.9600       0.98878853       0.96441869      -0.24369841E-01   0.41206931       0.55234938
  2188.4600       0.98090186       0.96788226      -0.13019602E-01   0.41652302       0.55135924
  2188.9600       0.99609625       0.96669905      -0.29397197E-01   0.41967081       0.54702825
  2189.4600       0.99603795       0.96165285      -0.34385097E-01   0.41611365       0.54553920
  2189.9600       0.99785845       0.96523576      -0.32622691E-01   0.41622720       0.54900856
  2190.4600        1.0061336       0.96858340      -0.37550177E-01   0.41748958       0.55109382
  2190.9600        1.0087925       0.97169774      -0.37094737E-01   0.42408148       0.54761626
  2191.4600        1.0000977       0.96890631      -0.31191402E-01   0.42560615       0.54330016
  2191.9600        1.0140699       0.97323366      -0.40836205E-01   0.42504779       0.54818587
  2192.4600        1.0083246       0.98087649      -0.27448140E-01   0.42640038       0.55447611
  2192.9600        1.0083673       0.96765368      -0.40713659E-01   0.42749086       0.54016282
  2193.4600        1.0216425       0.97038598      -0.51256542E-01   0.42921126       0.54117472
  2193.9600        1.0186650       0.97224523      -0.46419763E-01   0.42996104       0.54228419
  2194.4600        1.0101116       0.98173629      -0.28375360E-01   0.43137314       0.55036315
  2194.9600        1.0178615       0.97963929      -0.38222221E-01   0.43273095       0.54690834
  2195.4600        1.0395307       0.97516180      -0.64368926E-01   0.43050158       0.54466022
  2195.9600        1.0238056       0.97781010      -0.45995482E-01   0.43129630       0.54651380
  2196.4600        1.0286867       0.99832642      -0.30360301E-01   0.42956957       0.56875685
  2196.9600        1.0352548       0.99297875      -0.42276009E-01   0.43341830       0.55956045
  2197.4600        1.0566007       0.99414098      -0.62459752E-01   0.43799003       0.55615095
  2197.9600        1.0613506       0.99874967      -0.62600894E-01   0.44251270       0.55623698
  2198.4600        1.0609690       0.98803638      -0.72932644E-01   0.43963091       0.54840547
  2198.9600        1.0568602       0.98322550      -0.73634675E-01   0.43810104       0.54512446
  2199.4600        1.0752364       0.99255327      -0.82683151E-01   0.43830517       0.55424810
  2199.9600        1.0825822       0.99933330      -0.83248936E-01   0.44133454       0.55799876
  2200.4600        1.1014837       0.99898848      -0.10249526       0.44322972       0.55575876
  2201.4600        1.1054985       0.99832057      -0.10717792       0.44391660       0.55440397
  2202.4600        1.0913312        1.0150867      -0.76244535E-01   0.44846371       0.56662299
  2203.4600        1.1276191        1.0223368      -0.10528229       0.45355703       0.56877975
  2204.4600        1.1534118        1.0354260      -0.11798580       0.46410838       0.57131766
  2205.4600        1.1734975        1.0432799      -0.13021756       0.47053482       0.57274510
  2206.4600        1.1856234        1.0437708      -0.14185262       0.47468222       0.56908860
  2207.4600        1.1919109        1.0642529      -0.12765805       0.48011361       0.58413928
  2208.4600        1.2197340        1.0901531      -0.12958092       0.48764076       0.60251236
  2209.4600        1.2364257        1.1011848      -0.13524094       0.49550603       0.60567873
  2210.4600        1.2409960        1.0928038      -0.14819223       0.49901138       0.59379240
  2211.4600        1.2785061        1.1085728      -0.16993334       0.50533244       0.60324031
  2212.4600        1.2990362        1.1278401      -0.17119610       0.51239362       0.61544645
  2213.4600        1.3077985        1.1370768      -0.17072166       0.51710267       0.61997413
  2214.4600        1.3455914        1.1783097      -0.16728165       0.52139050       0.65691921
  2215.4600        1.3595052        1.1952222      -0.16428299       0.52646141       0.66876081
  2216.4600        1.3654998        1.1816500      -0.18384981       0.53497487       0.64667511
  2217.4600        1.3978987        1.1789939      -0.21890483       0.54160692       0.63738695
  2218.4600        1.4113883        1.2058220      -0.20556630       0.54892103       0.65690098
  2219.4600        1.4304234        1.2275072      -0.20291620       0.55006593       0.67744129
  2220.4600        1.4530545        1.2311639      -0.22189063       0.55476102       0.67640289
  2221.4600        1.4939889        1.2402326      -0.25375626       0.56115004       0.67908260
  2222.4600        1.4991047        1.2450552      -0.25404950       0.56528465       0.67977053
  2223.4600        1.5142307        1.2557923      -0.25843835       0.56981914       0.68597317
  2224.4600        1.5427911        1.2667733      -0.27601786       0.57438590       0.69238739
  2225.4600        1.5603818        1.2843334      -0.27604846       0.58264657       0.70168679
  2226.4600        1.5795482        1.4330453      -0.14650299       0.59089215       0.84215311
  2227.4600        1.6151290        1.5262970      -0.88832037E-01   0.59376358       0.93253339
  2228.4600        1.6489623        1.4157964      -0.23316585       0.59616125       0.81963518
  2229.4600        1.6453507        1.3486341      -0.29671659       0.59889887       0.74973522
  2230.4600        1.6725374        1.3710827      -0.30145475       0.60376607       0.76731658
  2231.4600        1.6745824        1.3763411      -0.29824130       0.60882748       0.76751366
  2232.4600        1.6920418        1.3689889      -0.32305288       0.61554384       0.75344506
  2233.4600        1.7174810        1.3790090      -0.33847199       0.62256618       0.75644286
  2234.4600        1.7178291        1.4009907      -0.31683840       0.63306696       0.76792371
  2235.4600        1.7460966        1.3964830      -0.34961359       0.63739752       0.75908551
  2236.4600        1.7743642        1.3731910      -0.40117315       0.63682679       0.73636422
  2237.4600        1.7734597        1.3797494      -0.39371026       0.63927628       0.74047314
  2238.4600        1.7862523        1.4213929      -0.36485940       0.65313549       0.76825741
