# XDI/1.0 Athena/0.9.26
# Element.edge:                  K
# Element.symbol:                P
# Column.1:                      energy eV
# Column.2:                      xmu
# Column.3:                      bkg
# Column.4:                      pre_edge
# Column.5:                      post_edge
# Column.6:                      der
# Column.7:                      sec
# Column.8:                      i0
# Column.9:                      chi(e)
# Athena.e0:                     2154
# Athena.eshift:                 0.46
# Athena.rbkg:                   1.0
# Athena.importance:             1
# Athena.standard:               None
# Athena.bkg_kweight:            2
# Athena.edge_step:              0.5562921
# Athena.fixed_step:             no
# Athena.pre_edge_range:         -25 -10
# Athena.pre_edge_line:          3.257942 - 0.00142479 * E
# Athena.normalization_range:    40 55
# Athena.post_edge_polynomial:   2.971609 - 0.0010336 * E + 0 * E^2 + 0 * E^3
# Athena.spline_range_energy:    0.000 85.601
# Athena.clamps:                 0 24
# Athena.spline_range_k:         0.000 4.740
# Athena.kweight:                2
# Athena.window:                 hanning
# Athena.phase_correction:       no
# Athena.k_range:                2.740 3.000
# Athena.dk:                     1
# Athena.r_range:                1 3
# Athena.dr:                     0.0
# Athena.window:                 hanning
# Athena.plot_multiplier:        1
# Athena.y_offset:               0
# ///
#------------------------
#   e         xmu        bkg        pre_edge        post_edge        der        sec        i0        chie
  2125.4600       0.23617600       0.23617600       0.22959923       0.77472674      -0.22375000E-02  -0.22962500E-03    1.0000000        0.0000000
  2127.4600       0.23170100       0.23170100       0.22674964       0.77265953      -0.26967500E-02   0.66500000E-04    1.0000000        0.0000000
  2129.4600       0.22538900       0.22538900       0.22390005       0.77059233      -0.19715000E-02   0.32962500E-03    1.0000000        0.0000000
  2131.4600       0.22381500       0.22381500       0.22105046       0.76852512      -0.13782500E-02  -0.55375000E-04    1.0000000        0.0000000
  2133.4600       0.21987600       0.21987600       0.21820087       0.76645791      -0.21930000E-02  -0.29525000E-03    1.0000000        0.0000000
  2135.4600       0.21504300       0.21504300       0.21535129       0.76439071      -0.25592500E-02   0.87375000E-04    1.0000000        0.0000000
  2137.4600       0.20963900       0.20963900       0.21250170       0.76232350      -0.18435000E-02   0.36547917E-03    1.0000000        0.0000000
  2139.4600       0.20766900       0.20766900       0.20965211       0.76025629      -0.10973333E-02  -0.14111111E-04    1.0000000        0.0000000
  2140.4600       0.20634700       0.20634700       0.20822732       0.75922269      -0.18858333E-02  -0.38494444E-02    1.0000000        0.0000000
  2140.6600       0.20540600       0.20540600       0.20794236       0.75901597      -0.57166667E-02   0.46119444E-01    1.0000000        0.0000000
  2140.7600       0.20463200       0.20463200       0.20779988       0.75891261       0.11950000E-01   0.91833333E-01    1.0000000        0.0000000
  2140.8600       0.20779600       0.20779600       0.20765740       0.75880925       0.12650000E-01  -0.99550000E-01    1.0000000        0.0000000
  2140.9600       0.20716200       0.20716200       0.20751492       0.75870589      -0.79600000E-02  -0.83975000E-01    1.0000000        0.0000000
  2141.0600       0.20620400       0.20620400       0.20737244       0.75860253      -0.41450000E-02   0.70050000E-01    1.0000000        0.0000000
  2141.1600       0.20633300       0.20633300       0.20722996       0.75849917       0.60500000E-02  -0.15825000E-01    1.0000000        0.0000000
  2141.2600       0.20741400       0.20741400       0.20708748       0.75839581      -0.73100000E-02  -0.87600000E-01    1.0000000        0.0000000
  2141.3600       0.20487100       0.20487100       0.20694500       0.75829245      -0.11470000E-01   0.39575000E-01    1.0000000        0.0000000
  2141.4600       0.20512000       0.20512000       0.20680252       0.75818909       0.60500000E-03   0.85425000E-01    1.0000000        0.0000000
  2141.5600       0.20499200       0.20499200       0.20666004       0.75808573       0.56150000E-02   0.50525000E-01    1.0000000        0.0000000
  2141.6600       0.20624300       0.20624300       0.20651756       0.75798237       0.10710000E-01  -0.33775000E-01    1.0000000        0.0000000
  2141.7600       0.20713400       0.20713400       0.20637508       0.75787901      -0.11400000E-02  -0.51275000E-01    1.0000000        0.0000000
  2141.8600       0.20601500       0.20601500       0.20623260       0.75777565       0.45500000E-03  -0.33975000E-01    1.0000000        0.0000000
  2141.9600       0.20722500       0.20722500       0.20609013       0.75767228      -0.79350000E-02  -0.71325000E-01    1.0000000        0.0000000
  2142.0600       0.20442800       0.20442800       0.20594765       0.75756892      -0.13810000E-01   0.31425000E-01    1.0000000        0.0000000
  2142.1600       0.20446300       0.20446300       0.20580517       0.75746556      -0.16500000E-02   0.11297500        1.0000000        0.0000000
  2142.2600       0.20409800       0.20409800       0.20566269       0.75736220       0.87850000E-02   0.95750000E-02    1.0000000        0.0000000
  2142.3600       0.20622000       0.20622000       0.20552021       0.75725884       0.26500000E-03  -0.91750000E-01    1.0000000        0.0000000
  2142.4600       0.20415100       0.20415100       0.20537773       0.75715548      -0.95650000E-02   0.54750000E-01    1.0000000        0.0000000
  2142.5600       0.20430700       0.20430700       0.20523525       0.75705212       0.11215000E-01   0.63325000E-01    1.0000000        0.0000000
  2142.6600       0.20639400       0.20639400       0.20509277       0.75694876       0.31000000E-02  -0.89275000E-01    1.0000000        0.0000000
  2142.7600       0.20492700       0.20492700       0.20495029       0.75684540      -0.66400000E-02  -0.49675000E-01    1.0000000        0.0000000
  2142.8600       0.20506600       0.20506600       0.20480781       0.75674204      -0.68350000E-02   0.12375000E-01    1.0000000        0.0000000
  2142.9600       0.20356000       0.20356000       0.20466533       0.75663868      -0.41650000E-02   0.10132500        1.0000000        0.0000000
  2143.0600       0.20423300       0.20423300       0.20452285       0.75653532       0.13430000E-01   0.78375000E-01    1.0000000        0.0000000
  2143.1600       0.20624600       0.20624600       0.20438037       0.75643196       0.11510000E-01  -0.94225000E-01    1.0000000        0.0000000
  2143.2600       0.20653500       0.20653500       0.20423789       0.75632860      -0.54150000E-02  -0.42500000E-01    1.0000000        0.0000000
  2143.3600       0.20516300       0.20516300       0.20409541       0.75622524       0.30100000E-02   0.33550000E-01    1.0000000        0.0000000
  2143.4600       0.20713700       0.20713700       0.20395293       0.75612188       0.12950000E-02  -0.32000000E-01    1.0000000        0.0000000
  2143.5600       0.20542200       0.20542200       0.20381045       0.75601852      -0.33900000E-02  -0.31475000E-01    1.0000000        0.0000000
  2143.6600       0.20645900       0.20645900       0.20366798       0.75591516      -0.50000000E-02   0.17775000E-01    1.0000000        0.0000000
  2143.7600       0.20442200       0.20442200       0.20352550       0.75581180       0.16500000E-03   0.38075000E-01    1.0000000        0.0000000
  2143.8600       0.20649200       0.20649200       0.20338302       0.75570844       0.26150000E-02   0.16900000E-01    1.0000000        0.0000000
  2143.9600       0.20494500       0.20494500       0.20324054       0.75560508       0.35450000E-02   0.42850000E-01    1.0000000        0.0000000
  2144.0600       0.20720100       0.20720100       0.20309806       0.75550172       0.11185000E-01  -0.82550000E-01    1.0000000        0.0000000
  2144.1600       0.20718200       0.20718200       0.20295558       0.75539836      -0.12965000E-01  -0.96775000E-01    1.0000000        0.0000000
  2144.2600       0.20460800       0.20460800       0.20281310       0.75529500      -0.81700000E-02   0.13732500        1.0000000        0.0000000
  2144.3600       0.20554800       0.20554800       0.20267062       0.75519164       0.14500000E-01   0.71025000E-01    1.0000000        0.0000000
  2144.4600       0.20750800       0.20750800       0.20252814       0.75508828       0.60350000E-02  -0.11815000        1.0000000        0.0000000
  2144.5600       0.20675500       0.20675500       0.20238566       0.75498492      -0.91300000E-02  -0.23225000E-01    1.0000000        0.0000000
  2144.6600       0.20568200       0.20568200       0.20224318       0.75488156       0.13900000E-02   0.12665000        1.0000000        0.0000000
  2144.7600       0.20703300       0.20703300       0.20210070       0.75477820       0.16200000E-01  -0.32050000E-01    1.0000000        0.0000000
  2144.8600       0.20892200       0.20892200       0.20195822       0.75467483      -0.50200000E-02  -0.10237500        1.0000000        0.0000000
  2144.9600       0.20602900       0.20602900       0.20181574       0.75457147      -0.42750000E-02   0.46500000E-01    1.0000000        0.0000000
  2145.0600       0.20806700       0.20806700       0.20167326       0.75446811       0.42800000E-02  -0.30000000E-03    1.0000000        0.0000000
  2145.1600       0.20688500       0.20688500       0.20153078       0.75436475      -0.43350000E-02   0.69750000E-01    1.0000000        0.0000000
  2145.2600       0.20720000       0.20720000       0.20138831       0.75426139       0.18230000E-01   0.34600000E-01    1.0000000        0.0000000
  2145.3600       0.21053100       0.21053100       0.20124583       0.75415803       0.25850000E-02  -0.10920000        1.0000000        0.0000000
  2145.4600       0.20771700       0.20771700       0.20110335       0.75405467      -0.36100000E-02   0.34150000E-01    1.0000000        0.0000000
  2145.5600       0.20980900       0.20980900       0.20096087       0.75395131       0.94150000E-02   0.37975000E-01    1.0000000        0.0000000
  2145.6600       0.20960000       0.20960000       0.20081839       0.75384795       0.39850000E-02  -0.36625000E-01    1.0000000        0.0000000
  2145.7600       0.21060600       0.21060600       0.20067591       0.75374459       0.20900000E-02  -0.33900000E-01    1.0000000        0.0000000
  2145.8600       0.21001800       0.21001800       0.20053343       0.75364123      -0.27950000E-02   0.70925000E-01    1.0000000        0.0000000
  2145.9600       0.21004700       0.21004700       0.20039095       0.75353787       0.16275000E-01   0.43025000E-01    1.0000000        0.0000000
  2146.0600       0.21327300       0.21327300       0.20024847       0.75343451       0.58100000E-02  -0.12660000        1.0000000        0.0000000
  2146.1600       0.21120900       0.21120900       0.20010599       0.75333115      -0.90450000E-02   0.41250000E-01    1.0000000        0.0000000
  2146.2600       0.21146400       0.21146400       0.19996351       0.75322779       0.14060000E-01   0.11912500        1.0000000        0.0000000
  2146.3600       0.21402100       0.21402100       0.19982103       0.75312443       0.14780000E-01  -0.10595000        1.0000000        0.0000000
  2146.4600       0.21442000       0.21442000       0.19967855       0.75302107      -0.71300000E-02  -0.55375000E-01    1.0000000        0.0000000
  2146.5600       0.21259500       0.21259500       0.19953607       0.75291771       0.37050000E-02   0.14172500        1.0000000        0.0000000
  2146.6600       0.21516100       0.21516100       0.19939359       0.75281435       0.21215000E-01   0.42700000E-01    1.0000000        0.0000000
  2146.7600       0.21683800       0.21683800       0.19925111       0.75271099       0.12245000E-01  -0.81800000E-01    1.0000000        0.0000000
  2146.8600       0.21761000       0.21761000       0.19910863       0.75260763       0.48550000E-02  -0.72500000E-02    1.0000000        0.0000000
  2146.9600       0.21780900       0.21780900       0.19896616       0.75250427       0.10795000E-01   0.66225000E-01    1.0000000        0.0000000
  2147.0600       0.21976900       0.21976900       0.19882368       0.75240091       0.18100000E-01   0.56500000E-01    1.0000000        0.0000000
  2147.1600       0.22142900       0.22142900       0.19868120       0.75229755       0.22095000E-01  -0.25500000E-01    1.0000000        0.0000000
  2147.2600       0.22418800       0.22418800       0.19853872       0.75219419       0.13000000E-01  -0.10897500        1.0000000        0.0000000
  2147.3600       0.22402900       0.22402900       0.19839624       0.75209083       0.30000000E-03  -0.55250000E-02    1.0000000        0.0000000
  2147.4600       0.22424800       0.22424800       0.19825376       0.75198747       0.11895000E-01   0.84800000E-01    1.0000000        0.0000000
  2147.5600       0.22640800       0.22640800       0.19811128       0.75188411       0.17260000E-01   0.42450000E-01    1.0000000        0.0000000
  2147.6600       0.22770000       0.22770000       0.19796880       0.75178075       0.20385000E-01   0.10625000E-01    1.0000000        0.0000000
  2147.7600       0.23048500       0.23048500       0.19782632       0.75167739       0.19385000E-01  -0.37800000E-01    1.0000000        0.0000000
  2147.8600       0.23157700       0.23157700       0.19768384       0.75157402       0.12825000E-01   0.22250000E-02    1.0000000        0.0000000
  2147.9600       0.23305000       0.23305000       0.19754136       0.75147066       0.19830000E-01   0.23725000E-01    1.0000000        0.0000000
  2148.0600       0.23554300       0.23554300       0.19739888       0.75136730       0.17570000E-01   0.50175000E-01    1.0000000        0.0000000
  2148.1600       0.23656400       0.23656400       0.19725640       0.75126394       0.29865000E-01   0.11007500        1.0000000        0.0000000
  2148.2600       0.24151600       0.24151600       0.19711392       0.75116058       0.39585000E-01  -0.16000000E-01    1.0000000        0.0000000
  2148.3600       0.24448100       0.24448100       0.19697144       0.75105722       0.26665000E-01  -0.80850000E-01    1.0000000        0.0000000
  2148.4600       0.24684900       0.24684900       0.19682896       0.75095386       0.23415000E-01   0.58250000E-02    1.0000000        0.0000000
  2148.5600       0.24916400       0.24916400       0.19668649       0.75085050       0.27830000E-01   0.66650000E-01    1.0000000        0.0000000
  2148.6600       0.25241500       0.25241500       0.19654401       0.75074714       0.36745000E-01  -0.23025000E-01    1.0000000        0.0000000
  2148.7600       0.25651300       0.25651300       0.19640153       0.75064378       0.23225000E-01   0.41075000E-01    1.0000000        0.0000000
  2148.8600       0.25706000       0.25706000       0.19625905       0.75054042       0.44960000E-01   0.22765000        1.0000000        0.0000000
  2148.9600       0.26550500       0.26550500       0.19611657       0.75043706       0.68755000E-01   0.41500000E-02    1.0000000        0.0000000
  2149.0600       0.27081100       0.27081100       0.19597409       0.75033370       0.45790000E-01  -0.80925000E-01    1.0000000        0.0000000
  2149.1600       0.27466300       0.27466300       0.19583161       0.75023034       0.52570000E-01   0.18860000        1.0000000        0.0000000
  2149.2600       0.28132500       0.28132500       0.19568913       0.75012698       0.83510000E-01   0.14885000        1.0000000        0.0000000
  2149.3600       0.29136500       0.29136500       0.19554665       0.75002362       0.82340000E-01  -0.79500000E-01    1.0000000        0.0000000
  2149.4600       0.29779300       0.29779300       0.19540417       0.74992026       0.67610000E-01   0.10167500        1.0000000        0.0000000
  2149.5600       0.30488700       0.30488700       0.19526169       0.74981690       0.10267500       0.37155000        1.0000000        0.0000000
  2149.6600       0.31832800       0.31832800       0.19511921       0.74971354       0.14192000       0.37350000E-01    1.0000000        0.0000000
  2149.7600       0.33327100       0.33327100       0.19497673       0.74961018       0.11014500      -0.31100000E-01    1.0000000        0.0000000
  2149.8600       0.34035700       0.34035700       0.19483425       0.74950682       0.13570000       0.42867500        1.0000000        0.0000000
  2149.9600       0.36041100       0.36041100       0.19469177       0.74940346       0.19588000       0.50987500        1.0000000        0.0000000
  2150.0600       0.37953300       0.37953300       0.19454929       0.74930010       0.23767500       0.49255000        1.0000000        0.0000000
  2150.1600       0.40794600       0.40794600       0.19440681       0.74919674       0.29439000       0.69862500        1.0000000        0.0000000
  2150.2600       0.43841100       0.43841100       0.19426434       0.74909338       0.37740000       0.73657500        1.0000000        0.0000000
  2150.3600       0.48342600       0.48342600       0.19412186       0.74899002       0.44170500       0.79435000        1.0000000        0.0000000
  2150.4600       0.52675200       0.52675200       0.19397938       0.74888666       0.53627000        1.1101250        1.0000000        0.0000000
  2150.5600       0.59068000       0.59068000       0.19383690       0.74878330       0.66373000        1.0692750        1.0000000        0.0000000
  2150.6600       0.65949800       0.65949800       0.19369442       0.74867994       0.75012500       0.78162500        1.0000000        0.0000000
  2150.7600       0.74070500       0.74070500       0.19355194       0.74857657       0.82005500       0.86517500        1.0000000        0.0000000
  2150.8600       0.82350900       0.82350900       0.19340946       0.74847321       0.92316000        1.3617500        1.0000000        0.0000000
  2150.9600       0.92533700       0.92533700       0.19326698       0.74836985        1.0924050        1.5547750        1.0000000        0.0000000
  2151.0600        1.0419900        1.0419900       0.19312450       0.74826649        1.2341150        1.8027250        1.0000000        0.0000000
  2151.1600        1.1721600        1.1721600       0.19298202       0.74816313        1.4529500        2.7801750        1.0000000        0.0000000
  2151.2600        1.3325800        1.3325800       0.19283954       0.74805977        1.7901500        3.7172500        1.0000000        0.0000000
  2151.3600        1.5301900        1.5301900       0.19269706       0.74795641        2.1964000        4.4585000        1.0000000        0.0000000
  2151.4600        1.7718600        1.7718600       0.19255458       0.74785305        2.6818500        5.2350000        1.0000000        0.0000000
  2151.5600        2.0665600        2.0665600       0.19241210       0.74774969        3.2434000        4.9812500        1.0000000        0.0000000
  2151.6600        2.4205400        2.4205400       0.19226962       0.74764633        3.6781000        2.9537500        1.0000000        0.0000000
  2151.7600        2.8021800        2.8021800       0.19212714       0.74754297        3.8341500       0.56625000        1.0000000        0.0000000
  2151.8600        3.1873700        3.1873700       0.19198466       0.74743961        3.7913500       -2.9142500        1.0000000        0.0000000
  2151.9600        3.5604500        3.5604500       0.19184219       0.74733625        3.2513000       -6.3277500        1.0000000        0.0000000
  2152.0600        3.8376300        3.8376300       0.19169971       0.74723289        2.5258000       -7.4262500        1.0000000        0.0000000
  2152.1600        4.0656100        4.0656100       0.19155723       0.74712953        1.7660500       -7.2605000        1.0000000        0.0000000
  2152.2600        4.1908400        4.1908400       0.19141475       0.74702617        1.0737000       -6.0417500        1.0000000        0.0000000
  2152.3600        4.2803500        4.2803500       0.19127227       0.74692281       0.55770000       -5.1752500        1.0000000        0.0000000
  2152.4600        4.3023800        4.3023800       0.19112979       0.74681945       0.38650000E-01   -4.9417500        1.0000000        0.0000000
  2152.5600        4.2880800        4.2880800       0.19098731       0.74671609      -0.43065000       -4.8542500        1.0000000        0.0000000
  2152.6600        4.2162500        4.2162500       0.19084483       0.74661273      -0.93220000       -4.5420000        1.0000000        0.0000000
  2152.7600        4.1016400        4.1016400       0.19070235       0.74650937       -1.3390500       -3.4100000        1.0000000        0.0000000
  2152.8600        3.9484400        3.9484400       0.19055987       0.74640601       -1.6142000       -1.6280000        1.0000000        0.0000000
  2152.9600        3.7788000        3.7788000       0.19041739       0.74630265       -1.6646500      -0.52100000        1.0000000        0.0000000
  2153.0600        3.6155100        3.6155100       0.19027491       0.74619929       -1.7184000      -0.98750000        1.0000000        0.0000000
  2153.1600        3.4351200        3.4351200       0.19013243       0.74609593       -1.8621500      -0.25475000        1.0000000        0.0000000
  2153.2600        3.2430800        3.2430800       0.18998995       0.74599257       -1.7693500       0.81050000        1.0000000        0.0000000
  2153.3600        3.0812500        3.0812500       0.18984747       0.74588921       -1.7000500       0.41125000        1.0000000        0.0000000
  2153.4600        2.9030700        2.9030700       0.18970499       0.74578585       -1.6871000       0.82800000        1.0000000        0.0000000
  2153.5600        2.7438300        2.7438300       0.18956252       0.74568249       -1.5344500        1.2862500        1.0000000        0.0000000
  2153.6600        2.5961800        2.5961800       0.18942004       0.74557913       -1.4298500        1.7710000        1.0000000        0.0000000
  2153.7600        2.4578600        2.4578600       0.18927756       0.74547576       -1.1802500        2.3380000        1.0000000        0.0000000
  2153.8600        2.3601300        2.3601300       0.18913508       0.74537240      -0.96225000        1.3760000        1.0000000        0.0000000
  2153.9600        2.2654100        2.2654100       0.18899260       0.74526904      -0.90505000       0.89675000        1.0000000        0.0000000
  2154.0600        2.1791200        1.0493411       0.18885012       0.74516568      -0.78290000        1.4315000        1.0000000        2.0309096
  2154.1600        2.1088300        1.0541890       0.18870764       0.74506232      -0.61875000        1.2602500        1.0000000        1.8958403
  2154.2600        2.0553700        1.0589538       0.18856516       0.74495896      -0.53085000       0.56800000        1.0000000        1.7911744
  2154.3600        2.0026600        1.0636359       0.18842268       0.74485560      -0.50515000       0.37625000        1.0000000        1.6880054
  2154.4600        1.9543400        1.0682357       0.18828020       0.74475224      -0.45560000       0.87075000        1.0000000        1.5928759
  2154.5600        1.9115400        1.0727538       0.18813772       0.74464888      -0.33100000       0.92150000        1.0000000        1.5078161
  2154.6600        1.8881400        1.0771906       0.18799524       0.74454552      -0.27130000       0.12375000        1.0000000        1.4577762
  2154.7600        1.8572800        1.0815465       0.18785276       0.74444216      -0.30625000       0.11375000        1.0000000        1.3944715
  2154.8600        1.8268900        1.0858221       0.18771028       0.74433880      -0.24855000      -0.29750000E-01    1.0000000        1.3321560
  2154.9600        1.8075700        1.0900178       0.18756780       0.74423544      -0.31220000      -0.73450000        1.0000000        1.2898838
  2155.0600        1.7644500        1.0941341       0.18742532       0.74413208      -0.39545000      -0.45000000E-02    1.0000000        1.2049711
  2155.1600        1.7284800        1.0981714       0.18728284       0.74402872      -0.31310000       0.31175000        1.0000000        1.1330532
  2155.2600        1.7018300        1.1021303       0.18714037       0.74392536      -0.33310000      -0.17325000        1.0000000        1.0780302
  2155.3600        1.6618600        1.1060111       0.18699789       0.74382200      -0.34775000       0.72250000E-01    1.0000000       0.99920323
  2155.4600        1.6322800        1.1098145       0.18685541       0.74371864      -0.31865000       0.75750000E-01    1.0000000       0.93919282
  2155.5600        1.5981300        1.1135407       0.18671293       0.74361528      -0.33260000      -0.12000000E-01    1.0000000       0.87110585
  2155.6600        1.5657600        1.1171904       0.18657045       0.74351192      -0.32105000      -0.19950000        1.0000000       0.80635632
  2155.7600        1.5339200        1.1207639       0.18642797       0.74340856      -0.37250000      -0.41475000        1.0000000       0.74269637
  2155.8600        1.4912600        1.1242618       0.18628549       0.74330520      -0.40400000       0.21475000        1.0000000       0.65972220
  2155.9600        1.4531200        1.1276844       0.18614301       0.74320184      -0.32955000       0.49025000        1.0000000       0.58500841
  2156.0600        1.4253500        1.1310324       0.18600053       0.74309848      -0.30595000       0.75000000E-02    1.0000000       0.52907022
  2156.1600        1.3919300        1.1343062       0.18585805       0.74299512      -0.32805000      -0.44250000E-01    1.0000000       0.46310895
  2156.2600        1.3597400        1.1375061       0.18571557       0.74289176      -0.31480000       0.30675000        1.0000000       0.39949136
  2156.3600        1.3289700        1.1406328       0.18557309       0.74278840      -0.26670000       0.15000000        1.0000000       0.33855816
  2156.4600        1.3064000        1.1436866       0.18543061       0.74268504      -0.28480000      -0.15650000        1.0000000       0.29249633
  2156.5600        1.2720100        1.1466681       0.18528813       0.74258168      -0.29800000       0.18650000        1.0000000       0.22531676
  2156.6600        1.2468000        1.1495776       0.18514565       0.74247832      -0.24750000       0.38900000        1.0000000       0.17476854
  2156.7600        1.2225100        1.1524158       0.18500317       0.74237495      -0.22020000       0.70500000E-01    1.0000000       0.12600251
  2156.8600        1.2027600        1.1551830       0.18486070       0.74227159      -0.23340000       0.12050000        1.0000000       0.85525204E-01
  2156.9600        1.1758300        1.1578797       0.18471822       0.74216823      -0.19610000       0.41075000        1.0000000       0.32267703E-01
  2157.0600        1.1635400        1.1605064       0.18457574       0.74206487      -0.15125000       0.90000000E-01    1.0000000       0.54531611E-02
  2157.1600        1.1455800        1.1630636       0.18443326       0.74196151      -0.17810000       0.50000000E-03    1.0000000      -0.31428865E-01
  2157.2600        1.1279200        1.1655517       0.18429078       0.74185815      -0.15115000       0.10750000        1.0000000      -0.67647448E-01
  2157.3600        1.1153500        1.1679713       0.18414830       0.74175479      -0.15660000       0.80500000E-01    1.0000000      -0.94592850E-01
  2157.4600        1.0966000        1.1703226       0.18400582       0.74165143      -0.13505000       0.39350000        1.0000000      -0.13252506
  2157.5600        1.0883400        1.1726064       0.18386334       0.74154807      -0.77900000E-01  -0.41250000E-01    1.0000000      -0.15147864
  2157.6600        1.0810200        1.1748229       0.18372086       0.74144471      -0.14330000      -0.32725000        1.0000000      -0.16862170
  2157.7600        1.0596800        1.1769727       0.18357838       0.74134135      -0.14335000       0.21675000        1.0000000      -0.21084741
  2157.8600        1.0523500        1.1790563       0.18343590       0.74123799      -0.99950000E-01   0.32000000E-01    1.0000000      -0.22776942
  2157.9600        1.0396900        1.1810741       0.18329342       0.74113463      -0.13695000      -0.31200000        1.0000000      -0.25415450
  2158.0600        1.0249600        1.1830266       0.18315094       0.74103127      -0.16235000      -0.10560000        1.0000000      -0.28414324
  2158.1600        1.0072200        1.1849143       0.18300846       0.74092791      -0.15807000       0.20145000        1.0000000      -0.31942627
  2158.2600       0.99334600        1.1867376       0.18286598       0.74082455      -0.12206000       0.40105000        1.0000000      -0.34764402
  2158.3600       0.98280800        1.1884970       0.18272350       0.74072119      -0.77860000E-01   0.27402500        1.0000000      -0.36975005
  2158.4600       0.97777400        1.1901930       0.18258102       0.74061783      -0.67255000E-01  -0.14720000        1.0000000      -0.38184800
  2158.5600       0.96935700        1.1918261       0.18243855       0.74051447      -0.10730000      -0.37677500        1.0000000      -0.39991412
  2158.6600       0.95631400        1.1933966       0.18229607       0.74041111      -0.14261000       0.33825000E-01    1.0000000      -0.42618369
  2158.7600       0.94083500        1.1949052       0.18215359       0.74030775      -0.10053500       0.40040000        1.0000000      -0.45672079
  2158.8600       0.93620700        1.1963522       0.18201111       0.74020439      -0.62530000E-01   0.80500000E-01    1.0000000      -0.46764132
  2158.9600       0.92832900        1.1977381       0.18186863       0.74010103      -0.84435000E-01  -0.26100000E-01    1.0000000      -0.48429433
  2159.0600       0.91932000        1.1990634       0.18172615       0.73999767      -0.67750000E-01   0.18165000        1.0000000      -0.50287150
  2159.1600       0.91477900        1.2003287       0.18158367       0.73989431      -0.48105000E-01   0.14690000        1.0000000      -0.51330884
  2159.2600       0.90969900        1.2015342       0.18144119       0.73979095      -0.38370000E-01   0.21750000E-01    1.0000000      -0.52460784
  2159.3600       0.90710500        1.2026806       0.18129871       0.73968759      -0.43755000E-01   0.10335000        1.0000000      -0.53133157
  2159.4600       0.90094800        1.2037682       0.18115623       0.73958423      -0.17700000E-01   0.26877500        1.0000000      -0.54435466
  2159.5600       0.90356500        1.2047976       0.18101375       0.73948087       0.10000000E-01   0.11837500        1.0000000      -0.54150075
  2159.6600       0.90294800        1.2057692       0.18087127       0.73937750       0.59750000E-02   0.21577500        1.0000000      -0.54435647
  2159.7600       0.90476000        1.2066835       0.18072879       0.73927414       0.53155000E-01   0.54525000E-01    1.0000000      -0.54274277
  2159.8600       0.91357900        1.2075410       0.18058631       0.73917078       0.16880000E-01  -0.35997500        1.0000000      -0.52843099
  2159.9600       0.90813600        1.2083421       0.18044383       0.73906742      -0.18840000E-01   0.14950000        1.0000000      -0.53965550
  2160.0600       0.90981100        1.2090873       0.18030135       0.73896406       0.46780000E-01   0.24792500        1.0000000      -0.53798410
  2160.1600       0.91749200        1.2097771       0.18015888       0.73886070       0.30745000E-01   0.85925000E-01    1.0000000      -0.52541658
  2160.2600       0.91596000        1.2104119       0.18001640       0.73875734       0.63965000E-01   0.25520000        1.0000000      -0.52931171
  2160.3600       0.93028500        1.2109923       0.17987392       0.73865398       0.81785000E-01   0.24083333E-02    1.0000000      -0.50460409
  2160.4600       0.93231700        1.2115186       0.17973144       0.73855062       0.64446667E-01  -0.15720000E-01    1.0000000      -0.50189748
  2160.9600       0.96895300        1.2133565       0.17901904       0.73803382       0.72353000E-01   0.86803333E-02    1.0000000      -0.43934389
  2161.4600        1.0046700        1.2139147       0.17830664       0.73751702       0.73127000E-01  -0.13730000E-02    1.0000000      -0.37614177
  2161.9600        1.0420800        1.2132519       0.17759425       0.73700022       0.70980000E-01  -0.16847000E-01    1.0000000      -0.30770146
  2162.4600        1.0756500        1.2114269       0.17688185       0.73648342       0.56280000E-01  -0.39620000E-01    1.0000000      -0.24407487
  2162.9600        1.0983600        1.2084986       0.17616945       0.73596661       0.31360000E-01  -0.47100000E-01    1.0000000      -0.19798699
  2163.4600        1.1070100        1.2045257       0.17545706       0.73544981       0.91800000E-02  -0.60900000E-02    1.0000000      -0.17529591
  2163.9600        1.1075400        1.1995671       0.17474466       0.73493301       0.25270000E-01   0.35150000E-01    1.0000000      -0.16542948
  2164.4600        1.1322800        1.1936816       0.17403226       0.73441621       0.44330000E-01   0.27210000E-01    1.0000000      -0.11037647
  2164.9600        1.1518700        1.1869279       0.17331986       0.73389941       0.52480000E-01   0.16300000E-01    1.0000000      -0.63020628E-01
  2165.4600        1.1847600        1.1793649       0.17260747       0.73338261       0.60630000E-01  -0.11200000E-02    1.0000000       0.96983778E-02
  2165.9600        1.2125000        1.1710513       0.17189507       0.73286580       0.51360000E-01  -0.24030000E-01    1.0000000       0.74508803E-01
  2166.4600        1.2361200        1.1620461       0.17118267       0.73234900       0.36600000E-01  -0.16600000E-01    1.0000000       0.13315648
  2166.9600        1.2491000        1.1524080       0.17047028       0.73183220       0.34760000E-01  -0.36100000E-02    1.0000000       0.17381524
  2167.4600        1.2708800        1.1421957       0.16975788       0.73131540       0.32990000E-01  -0.14990000E-01    1.0000000       0.23132505
  2167.9600        1.2820900        1.1314682       0.16904548       0.73079860       0.19770000E-01  -0.26750000E-01    1.0000000       0.27076034
  2168.4600        1.2906500        1.1202841       0.16833309       0.73028180       0.62400000E-02  -0.21090000E-01    1.0000000       0.30625255
  2168.9600        1.2883300        1.1087024       0.16762069       0.72976499      -0.13200000E-02  -0.22180000E-01    1.0000000       0.32290157
  2169.4600        1.2893300        1.0967818       0.16690829       0.72924819      -0.15940000E-01  -0.32940000E-01    1.0000000       0.34612784
  2169.9600        1.2723900        1.0845812       0.16619589       0.72873139      -0.34260000E-01  -0.28240000E-01    1.0000000       0.33760833
  2170.4600        1.2550700        1.0721592       0.16548350       0.72821459      -0.44180000E-01  -0.21370000E-01    1.0000000       0.32880348
  2170.9600        1.2282100        1.0595748       0.16477110       0.72769779      -0.55630000E-01  -0.55600000E-02    1.0000000       0.30314141
  2171.4600        1.1994400        1.0468868       0.16405870       0.72718098      -0.49740000E-01   0.10000000E-01    1.0000000       0.27423221
  2171.9600        1.1784700        1.0341539       0.16334631       0.72666418      -0.45630000E-01  -0.52900000E-02    1.0000000       0.25942505
  2172.4600        1.1538100        1.0214350       0.16263391       0.72614738      -0.55030000E-01  -0.17470000E-01    1.0000000       0.23795958
  2172.9600        1.1234400        1.0087888       0.16192151       0.72563058      -0.63100000E-01  -0.11500000E-01    1.0000000       0.20609892
  2173.4600        1.0907100       0.99627420       0.16120912       0.72511378      -0.66530000E-01  -0.51300000E-02    1.0000000       0.16975938
  2173.9600        1.0569100       0.98394998       0.16049672       0.72459698      -0.68230000E-01   0.44630000E-02    1.0000000       0.13115416
  2174.4600        1.0224800       0.97187493       0.15978432       0.72408017      -0.62067000E-01   0.57780000E-02    1.0000000       0.90968520E-01
  2174.9600       0.99484300       0.96009419       0.15907192       0.72356337      -0.62452000E-01   0.57450000E-02    1.0000000       0.62465041E-01
  2175.4600       0.96002800       0.94861217       0.15835953       0.72304657      -0.56322000E-01   0.82240000E-02    1.0000000       0.20521284E-01
  2175.9600       0.93852100       0.93742573       0.15764713       0.72252977      -0.54228000E-01   0.16260000E-02    1.0000000       0.19688719E-02
  2176.4600       0.90580000       0.92653173       0.15693473       0.72201297      -0.54696000E-01   0.82660000E-02    1.0000000      -0.37267706E-01
  2176.9600       0.88382500       0.91592703       0.15622234       0.72149617      -0.45962000E-01   0.93150000E-02    1.0000000      -0.57707139E-01
  2177.4600       0.85983800       0.90560848       0.15550994       0.72097936      -0.45381000E-01   0.91910000E-02    1.0000000      -0.82277773E-01
  2177.9600       0.83844400       0.89557294       0.15479754       0.72046256      -0.36771000E-01   0.13366000E-01    1.0000000      -0.10269594
  2178.4600       0.82306700       0.88581727       0.15408515       0.71994576      -0.32015000E-01   0.11584000E-01    1.0000000      -0.11280095
  2178.9600       0.80642900       0.87633834       0.15337275       0.71942896      -0.25187000E-01   0.11117000E-01    1.0000000      -0.12567020
  2179.4600       0.79788000       0.86713300       0.15266035       0.71891216      -0.20898000E-01   0.39310000E-02    1.0000000      -0.12449035
  2179.9600       0.78553100       0.85819810       0.15194795       0.71839536      -0.21256000E-01  -0.10090000E-02    1.0000000      -0.13062760
  2180.4600       0.77662400       0.84953051       0.15123556       0.71787855      -0.21907000E-01   0.82430000E-02    1.0000000      -0.13105796
  2180.9600       0.76362400       0.84112709       0.15052316       0.71736175      -0.13013000E-01   0.16502000E-01    1.0000000      -0.13932084
  2181.4600       0.76361100       0.83298468       0.14981076       0.71684495      -0.54050000E-02   0.17970000E-02    1.0000000      -0.12470730
  2181.9600       0.75821900       0.82510016       0.14909837       0.71632815      -0.11216000E-01  -0.38580000E-02    1.0000000      -0.12022670
  2182.4600       0.75239500       0.81747038       0.14838597       0.71581135      -0.92630000E-02   0.10350000E-01    1.0000000      -0.11698060
  2182.9600       0.74895600       0.81009220       0.14767357       0.71529455      -0.86600000E-03   0.88460000E-02    1.0000000      -0.10989947
  2183.4600       0.75152900       0.80296248       0.14696118       0.71477774      -0.41700000E-03  -0.44080000E-02    1.0000000      -0.92457690E-01
  2183.9600       0.74853900       0.79607808       0.14624878       0.71426094      -0.52740000E-02  -0.40840000E-02    1.0000000      -0.85457040E-01
  2184.4600       0.74625500       0.78943584       0.14553638       0.71374414      -0.45010000E-02  -0.24100000E-03    1.0000000      -0.77622610E-01
  2184.9600       0.74403800       0.78303265       0.14482399       0.71322734      -0.55150000E-02   0.48000000E-03    1.0000000      -0.70097430E-01
  2185.4600       0.74074000       0.77686534       0.14411159       0.71271054      -0.40210000E-02   0.83600000E-03    1.0000000      -0.64939517E-01
  2185.9600       0.74001700       0.77093078       0.14339919       0.71219374      -0.46790000E-02   0.20300000E-02    1.0000000      -0.55571136E-01
  2186.4600       0.73606100       0.76522584       0.14268679       0.71167693      -0.19910000E-02  -0.26990000E-02    1.0000000      -0.52427199E-01
  2186.9600       0.73802600       0.75974736       0.14197440       0.71116013      -0.73780000E-02  -0.12910000E-02    1.0000000      -0.39046675E-01
  2187.4600       0.72868300       0.75449220       0.14126200       0.71064333      -0.32820000E-02   0.49100000E-02    1.0000000      -0.46395056E-01
  2187.9600       0.73474400       0.74945723       0.14054960       0.71012653      -0.24680000E-02  -0.52010000E-02    1.0000000      -0.26448756E-01
  2188.4600       0.72621500       0.74463931       0.13983721       0.70960973      -0.84830000E-02   0.11470000E-02    1.0000000      -0.33119844E-01
  2188.9600       0.72626100       0.74003528       0.13912481       0.70909293      -0.13210000E-02   0.10560000E-02    1.0000000      -0.24760882E-01
  2189.4600       0.72489400       0.73564202       0.13841241       0.70857612      -0.74270000E-02  -0.26190000E-02    1.0000000      -0.19320818E-01
  2189.9600       0.71883400       0.73145637       0.13770002       0.70805932      -0.39400000E-02   0.41050000E-02    1.0000000      -0.22690189E-01
  2190.4600       0.72095400       0.72747520       0.13698762       0.70754252      -0.33220000E-02  -0.65750000E-02    1.0000000      -0.11722626E-01
  2190.9600       0.71551200       0.72369537       0.13627522       0.70702572      -0.10515000E-01   0.12900000E-03    1.0000000      -0.14710566E-01
  2191.4600       0.71043900       0.72011373       0.13556282       0.70650892      -0.31930000E-02   0.70370000E-02    1.0000000      -0.17391463E-01
  2191.9600       0.71231900       0.71672715       0.13485043       0.70599212      -0.34780000E-02   0.13350000E-02    1.0000000      -0.79241604E-02
  2192.4600       0.70696100       0.71353247       0.13413803       0.70547531      -0.18580000E-02   0.82330000E-02    1.0000000      -0.11812991E-01
  2192.9600       0.71046100       0.71052657       0.13342563       0.70495851       0.47550000E-02  -0.32690000E-02    1.0000000      -0.11786909E-03
  2193.4600       0.71171600       0.70770629       0.13271324       0.70444171      -0.51270000E-02  -0.98800000E-02    1.0000000       0.72079146E-02
  2193.9600       0.70533400       0.70506851       0.13200084       0.70392491      -0.51250000E-02   0.15990000E-02    1.0000000       0.47725738E-03
  2194.4600       0.70659100       0.70261006       0.13128844       0.70340811      -0.35280000E-02   0.12690000E-02    1.0000000       0.71561999E-02
  2194.9600       0.70180600       0.70032782       0.13057605       0.70289131      -0.38560000E-02   0.62940000E-02    1.0000000       0.26571945E-02
  2195.4600       0.70273500       0.69821865       0.12986365       0.70237450       0.27660000E-02   0.83190000E-02    1.0000000       0.81186708E-02
  2195.9600       0.70457200       0.69627939       0.12915125       0.70185770       0.44630000E-02  -0.10979000E-01    1.0000000       0.14906930E-01
  2196.4600       0.70719800       0.69450692       0.12843885       0.70134090      -0.82130000E-02  -0.83800000E-02    1.0000000       0.22813702E-01
  2196.9600       0.69635900       0.69289808       0.12772646       0.70082410      -0.39170000E-02   0.13435000E-01    1.0000000       0.62214065E-02
  2197.4600       0.70328100       0.69144974       0.12701406       0.70030730       0.52220000E-02  -0.19200000E-03    1.0000000       0.21268070E-01
  2197.9600       0.70158100       0.69015876       0.12630166       0.69979050      -0.41090000E-02  -0.49480000E-02    1.0000000       0.20532817E-01
  2198.4600       0.69917200       0.68902199       0.12558927       0.69927369       0.27400000E-03   0.72100000E-03    1.0000000       0.18245836E-01
  2198.9600       0.70185500       0.68803629       0.12487687       0.69875689      -0.33880000E-02  -0.38250000E-02    1.0000000       0.24840749E-01
  2199.4600       0.69578400       0.68719852       0.12416447       0.69824009      -0.35510000E-02  -0.63100000E-03    1.0000000       0.15433402E-01
  2199.9600       0.69830400       0.68650554       0.12345208       0.69772329      -0.40190000E-02  -0.35076667E-02    1.0000000       0.21209104E-01
  2200.4600       0.69176500       0.68595421       0.12273968       0.69720649      -0.70586667E-02   0.31350000E-02    1.0000000       0.10445567E-01
  2201.4600       0.68771600       0.68526393       0.12131488       0.69617288       0.68350000E-03   0.38203333E-02    1.0000000       0.44078763E-02
  2202.4600       0.69313200       0.68510255       0.11989009       0.69513928       0.58200000E-03  -0.15220000E-02    1.0000000       0.14433877E-01
  2203.4600       0.68888000       0.68544493       0.11846530       0.69410568      -0.23605000E-02   0.13300000E-03    1.0000000       0.61749462E-02
  2204.4600       0.68841100       0.68626594       0.11704050       0.69307207       0.84800000E-03   0.10257500E-02    1.0000000       0.38560029E-02
  2205.4600       0.69057600       0.68754045       0.11561571       0.69203847      -0.30900000E-03   0.57975000E-03    1.0000000       0.54567627E-02
  2206.4600       0.68779300       0.68924332       0.11419092       0.69100487       0.20075000E-02   0.22097500E-02    1.0000000      -0.26071275E-02
  2207.4600       0.69459100       0.69134944       0.11276612       0.68997126       0.41105000E-02  -0.14475000E-02    1.0000000       0.58270834E-02
  2208.4600       0.69601400       0.69383366       0.11134133       0.68893766      -0.88750000E-03  -0.13902500E-02    1.0000000       0.39194160E-02
  2209.4600       0.69281600       0.69667085       0.10991653       0.68790406       0.13300000E-02   0.25017500E-02    1.0000000      -0.69295494E-02
  2210.4600       0.69867400       0.69983589       0.10849174       0.68687045       0.41160000E-02   0.14365000E-02    1.0000000      -0.20886314E-02
  2211.4600       0.70104800       0.70330363       0.10706695       0.68583685       0.42030000E-02   0.60200000E-03    1.0000000      -0.40547672E-02
  2212.4600       0.70708000       0.70704896       0.10564215       0.68480325       0.53200000E-02  -0.78500000E-04    1.0000000       0.55799396E-04
  2213.4600       0.71168800       0.71104673       0.10421736       0.68376964       0.40460000E-02   0.43275000E-03    1.0000000       0.11527569E-02
  2214.4600       0.71517200       0.71527182       0.10279256       0.68273604       0.61855000E-02   0.21437500E-02    1.0000000      -0.17943242E-03
  2215.4600       0.72405900       0.71969909       0.10136777       0.68170244       0.83335000E-02   0.29375000E-03    1.0000000       0.78374529E-02
  2216.4600       0.73183900       0.72430341       0.99942976E-01   0.68066883       0.67730000E-02  -0.15335000E-02    1.0000000       0.13546105E-01
  2217.4600       0.73760500       0.72905965       0.98518182E-01   0.67963523       0.52665000E-02  -0.92975000E-03    1.0000000       0.15361263E-01
  2218.4600       0.74237200       0.73394268       0.97093388E-01   0.67860163       0.49135000E-02   0.10517500E-02    1.0000000       0.15152683E-01
  2219.4600       0.74743200       0.73892737       0.95668594E-01   0.67756802       0.73700000E-02   0.54425000E-03    1.0000000       0.15288066E-01
  2220.4600       0.75711200       0.74398858       0.94243800E-01   0.67653442       0.60020000E-02  -0.15505000E-02    1.0000000       0.23590874E-01
  2221.4600       0.75943600       0.74910119       0.92819006E-01   0.67550082       0.42690000E-02  -0.76125000E-03    1.0000000       0.18578028E-01
  2222.4600       0.76565000       0.75424006       0.91394212E-01   0.67446721       0.44795000E-02  -0.48925000E-03    1.0000000       0.20510701E-01
  2223.4600       0.76839500       0.75938006       0.89969418E-01   0.67343361       0.32905000E-02  -0.68200000E-03    1.0000000       0.16205410E-01
  2224.4600       0.77223100       0.76449606       0.88544624E-01   0.67240001       0.31155000E-02   0.14140000E-02    1.0000000       0.13904464E-01
  2225.4600       0.77462600       0.76956292       0.87119830E-01   0.67136640       0.61185000E-02   0.81425000E-03    1.0000000       0.91014748E-02
  2226.4600       0.78446800       0.77455552       0.85695036E-01   0.67033280       0.47440000E-02  -0.24260000E-02    1.0000000       0.17818836E-01
  2227.4600       0.78411400       0.77944873       0.84270242E-01   0.66929920       0.12665000E-02  -0.13665000E-02    1.0000000       0.83863736E-02
  2228.4600       0.78700100       0.78421740       0.82845448E-01   0.66826559       0.20110000E-02   0.57300000E-03    1.0000000       0.50038402E-02
  2229.4600       0.78813600       0.78883642       0.81420654E-01   0.66723199       0.24125000E-02   0.16747500E-02    1.0000000      -0.12590874E-02
  2230.4600       0.79182600       0.79328065       0.79995860E-01   0.66619839       0.53605000E-02   0.13437500E-02    1.0000000      -0.26148966E-02
  2231.4600       0.79885700       0.79752495       0.78571066E-01   0.66516478       0.51000000E-02  -0.96500000E-03    1.0000000       0.23945162E-02
  2232.4600       0.80202600       0.80154420       0.77146272E-01   0.66413118       0.34305000E-02  -0.92500000E-03    1.0000000       0.86609483E-03
  2233.4600       0.80571800       0.80531326       0.75721478E-01   0.66309758       0.32500000E-02  -0.70175000E-03    1.0000000       0.72756568E-03
  2234.4600       0.80852600       0.80880701       0.74296684E-01   0.66206397       0.20270000E-02   0.97100000E-03    1.0000000      -0.50514090E-03
  2235.4600       0.80977200       0.81200030       0.72871890E-01   0.66103037       0.51920000E-02   0.13515000E-02    1.0000000      -0.40056320E-02
  2236.4600       0.81891000       0.81486802       0.71447096E-01   0.65999677       0.47300000E-02  -0.29460000E-02    1.0000000       0.72659382E-02
  2237.4600       0.81923200       0.81738502       0.70022303E-01   0.65896316      -0.70000000E-03  -0.32260000E-02    1.0000000       0.33201661E-02
  2238.4600       0.81751000       0.81952618       0.68597509E-01   0.65792956      -0.17220000E-02  -0.10220000E-02    1.0000000      -0.36243105E-02
