# XDI/1.0 Athena/0.9.26
# Element.edge:                  K
# Element.symbol:                P
# Column.1:                      energy eV
# Column.2:                      norm
# Column.3:                      nbkg
# Column.4:                      flat
# Column.5:                      fbkg
# Column.6:                      nder
# Column.7:                      nsec
# Athena.e0:                     2154
# Athena.eshift:                 0
# Athena.rbkg:                   1.0
# Athena.importance:             1
# Athena.standard:               None
# Athena.bkg_kweight:            2
# Athena.edge_step:              0.1831312
# Athena.fixed_step:             no
# Athena.pre_edge_range:         -17.4 -10
# Athena.pre_edge_line:          1.307907 - 0.000590862 * E
# Athena.normalization_range:    28 63.6
# Athena.post_edge_polynomial:   2.209798 - 0.000924548 * E + 0 * E^2 + 0 * E^3
# Athena.spline_range_energy:    0.000 85.601
# Athena.clamps:                 0 24
# Athena.spline_range_k:         0.000 4.740
# Athena.kweight:                2
# Athena.window:                 hanning
# Athena.phase_correction:       no
# Athena.k_range:                2.740 3.000
# Athena.dk:                     1
# Athena.r_range:                1 3
# Athena.dr:                     0.0
# Athena.window:                 hanning
# Athena.plot_multiplier:        1
# Athena.y_offset:               0
# ///
#------------------------
#   e         norm        nbkg        flat        fbkg        nder        nsec
  2106.0000       0.18913514       0.18913519       0.18913519       0.18913519      -0.96864317E-02   0.64748644E-03
  2108.0000       0.16976228       0.16976232       0.16976232       0.16976232      -0.83914588E-02   0.48138289E-03
  2110.0000       0.15556931       0.15556935       0.15556935       0.15556935      -0.77609001E-02  -0.27712365E-04
  2112.0000       0.13871868       0.13871871       0.13871871       0.13871871      -0.85023083E-02   0.13968807E-03
  2114.0000       0.12156007       0.12156010       0.12156010       0.12156010      -0.72021478E-02   0.66205932E-03
  2116.0000       0.10991009       0.10991011       0.10991011       0.10991011      -0.58540710E-02  -0.58701069E-05
  2118.0000       0.98143788E-01   0.98143814E-01   0.98143814E-01   0.98143814E-01  -0.72256283E-02  -0.26630491E-03
  2120.0000       0.81007572E-01   0.81007594E-01   0.81007594E-01   0.81007594E-01  -0.69192906E-02   0.13508071E-03
  2122.0000       0.70466626E-01   0.70466645E-01   0.70466645E-01   0.70466645E-01  -0.66853054E-02  -0.12173646E-03
  2124.0000       0.54266351E-01   0.54266365E-01   0.54266365E-01   0.54266365E-01  -0.74062364E-02   0.56110713E-03
  2126.0000       0.40841680E-01   0.40841691E-01   0.40841691E-01   0.40841691E-01  -0.44408769E-02   0.90290434E-03
  2128.0000       0.36502843E-01   0.36502853E-01   0.36502853E-01   0.36502853E-01  -0.37946191E-02  -0.31227603E-04
  2130.0000       0.25663204E-01   0.25663211E-01   0.25663211E-01   0.25663211E-01  -0.45657873E-02  -0.72113580E-04
  2132.0000       0.18239694E-01   0.18239699E-01   0.18239699E-01   0.18239699E-01  -0.40830734E-02   0.27456401E-03
  2134.0000       0.93309103E-02   0.93309128E-02   0.93309128E-02   0.93309128E-02  -0.34675313E-02   0.79485342E-03
  2136.0000       0.43695689E-02   0.43695700E-02   0.43695700E-02   0.43695700E-02  -0.90365969E-03   0.43274974E-03
  2138.0000       0.57162716E-02   0.57162731E-02   0.57162731E-02   0.57162731E-02  -0.17365323E-02  -0.66130539E-03
  2140.0000      -0.25765603E-02  -0.25765610E-02  -0.25765610E-02  -0.25765610E-02  -0.35488813E-02   0.28900658E-02
  2140.2000      -0.20912672E-02  -0.20912677E-02  -0.20912678E-02  -0.20912677E-02   0.46216125E-02   0.40650180E-02
  2140.4000      -0.72791530E-03  -0.72791549E-03  -0.72791550E-03  -0.72791549E-03  -0.19228741E-02  -0.30087711E-01
  2140.6000      -0.28604168E-02  -0.28604176E-02  -0.28604176E-02  -0.28604176E-02  -0.74134717E-02   0.12508106E-01
  2140.8000      -0.36933040E-02  -0.36933050E-02  -0.36933050E-02  -0.36933050E-02   0.30803682E-02   0.33811133E-01
  2141.0000      -0.16282695E-02  -0.16282700E-02  -0.16282700E-02  -0.16282700E-02   0.61109815E-02  -0.12200949E-01
  2141.2000      -0.12489114E-02  -0.12489117E-02  -0.12489117E-02  -0.12489117E-02  -0.18000114E-02  -0.23743217E-01
  2141.4000      -0.23482741E-02  -0.23482747E-02  -0.23482747E-02  -0.23482747E-02  -0.33863054E-02   0.18094946E-01
  2141.6000      -0.26034335E-02  -0.26034342E-02  -0.26034342E-02  -0.26034342E-02   0.54379669E-02   0.18954985E-01
  2141.8000      -0.17308732E-03  -0.17308737E-03  -0.17308737E-03  -0.17308737E-03   0.41956885E-02  -0.22207433E-01
  2142.0000      -0.92515813E-03  -0.92515837E-03  -0.92515838E-03  -0.92515837E-03  -0.34450064E-02  -0.89655644E-02
  2142.2000      -0.15510899E-02  -0.15510903E-02  -0.15510903E-02  -0.15510903E-02   0.60946274E-03   0.20999283E-01
  2142.4000      -0.68137304E-03  -0.68137321E-03  -0.68137322E-03  -0.68137321E-03   0.49547070E-02  -0.26487151E-01
  2142.6000       0.43079289E-03   0.43079301E-03   0.43079300E-03   0.43079301E-03  -0.99853976E-02  -0.17955019E-01
  2142.8000      -0.46755321E-02  -0.46755333E-02  -0.46755333E-02  -0.46755333E-02  -0.22273005E-02   0.66513089E-01
  2143.0000      -0.46012733E-03  -0.46012744E-03  -0.46012745E-03  -0.46012744E-03   0.16619838E-01   0.26872803E-01
  2143.2000       0.19724031E-02   0.19724036E-02   0.19724036E-02   0.19724036E-02   0.85218207E-02  -0.28115082E-01
  2143.4000       0.29486010E-02   0.29486018E-02   0.29486018E-02   0.29486018E-02   0.53738053E-02  -0.24610082E-01
  2143.6000       0.41219252E-02   0.41219263E-02   0.41219263E-02   0.41219263E-02  -0.13222120E-02  -0.37541381E-04
  2143.8000       0.24197162E-02   0.24197168E-02   0.24197168E-02   0.24197168E-02   0.53587887E-02   0.20501007E-01
  2144.0000       0.62654407E-02   0.62654424E-02   0.62654424E-02   0.62654424E-02   0.68781908E-02  -0.23309785E-01
  2144.2000       0.51709925E-02   0.51709939E-02   0.51709939E-02   0.51709939E-02  -0.39651252E-02   0.13712843E-01
  2144.4000       0.46793906E-02   0.46793919E-02   0.46793919E-02   0.46793919E-02   0.12363328E-01   0.50114331E-01
  2144.6000       0.10116324E-01   0.10116326E-01   0.10116326E-01   0.10116326E-01   0.16080607E-01  -0.36964609E-01
  2144.8000       0.11111633E-01   0.11111636E-01   0.11111636E-01   0.11111636E-01  -0.24225157E-02  -0.35094366E-01
  2145.0000       0.91473174E-02   0.91473198E-02   0.91473198E-02   0.91473198E-02   0.20428609E-02   0.17354357E-01
  2145.2000       0.11928778E-01   0.11928781E-01   0.11928781E-01   0.11928781E-01   0.45192269E-02   0.17879936E-01
  2145.4000       0.10955008E-01   0.10955011E-01   0.10955011E-01   0.10955011E-01   0.91948353E-02   0.54708031E-02
  2145.6000       0.15606712E-01   0.15606716E-01   0.15606716E-01   0.15606716E-01   0.67075482E-02  -0.56687485E-02
  2145.8000       0.13638027E-01   0.13638031E-01   0.13638031E-01   0.13638031E-01   0.69273359E-02   0.15941436E-01
  2146.0000       0.18377646E-01   0.18377651E-01   0.18377651E-01   0.18377651E-01   0.13084122E-01  -0.93034368E-02
  2146.2000       0.18871676E-01   0.18871681E-01   0.18871681E-01   0.18871681E-01   0.32059612E-02   0.50680864E-02
  2146.4000       0.19660031E-01   0.19660036E-01   0.19660036E-01   0.19660036E-01   0.15111357E-01   0.46551313E-01
  2146.6000       0.24916219E-01   0.24916226E-01   0.24916226E-01   0.24916226E-01   0.21826486E-01   0.29210607E-01
  2146.8000       0.28390625E-01   0.28390633E-01   0.28390633E-01   0.28390633E-01   0.26795600E-01  -0.28026347E-01
  2147.0000       0.35634459E-01   0.35634469E-01   0.35634469E-01   0.35634469E-01   0.10615947E-01  -0.44582096E-01
  2147.2000       0.32637004E-01   0.32637013E-01   0.32637013E-01   0.32637013E-01   0.89627613E-02   0.74707348E-02
  2147.4000       0.39219564E-01   0.39219574E-01   0.39219574E-01   0.39219574E-01   0.13604241E-01   0.43715232E-01
  2147.6000       0.38078701E-01   0.38078711E-01   0.38078711E-01   0.38078711E-01   0.26448854E-01   0.82737791E-01
  2147.8000       0.49799105E-01   0.49799119E-01   0.49799119E-01   0.49799119E-01   0.46699358E-01   0.26401829E-01
  2148.0000       0.56758444E-01   0.56758459E-01   0.56758459E-01   0.56758459E-01   0.37009586E-01  -0.54909389E-01
  2148.2000       0.64602940E-01   0.64602957E-01   0.64602957E-01   0.64602957E-01   0.24735602E-01  -0.22388315E-02
  2148.4000       0.66652684E-01   0.66652702E-01   0.66652702E-01   0.66652702E-01   0.36114053E-01   0.74905294E-01
  2148.6000       0.79048561E-01   0.79048582E-01   0.79048582E-01   0.79048582E-01   0.54697719E-01   0.49865193E-01
  2148.8000       0.88531772E-01   0.88531796E-01   0.88531796E-01   0.88531796E-01   0.56060130E-01   0.12357940E-01
  2149.0000       0.10147261       0.10147264       0.10147264       0.10147264       0.59640896E-01  -0.17815092E-02
  2149.2000       0.11238813       0.11238816       0.11238816       0.11238816       0.55347527E-01   0.45083786E-01
  2149.4000       0.12361162       0.12361166       0.12361166       0.12361166       0.77674410E-01   0.14983789
  2149.6000       0.14345789       0.14345793       0.14345793       0.14345793       0.11528268       0.12121771
  2149.8000       0.16972470       0.16972474       0.16972474       0.16972474       0.12616149       0.87048224E-01
  2150.0000       0.19392249       0.19392254       0.19392254       0.19392254       0.15010197       0.25070817
  2150.2000       0.22976549       0.22976555       0.22976555       0.22976555       0.22644476       0.37880277
  2150.4000       0.28450040       0.28450047       0.28450047       0.28450047       0.30162308       0.43222075
  2150.6000       0.35041472       0.35041481       0.35041481       0.35041481       0.39933306       0.68041023
  2150.8000       0.44423362       0.44423374       0.44423374       0.44423374       0.57378717        1.2442647
  2151.0000       0.57992959       0.57992974       0.57992974       0.57992974       0.89703894        1.8101089
  2151.2000       0.80304920       0.80304941       0.80304941       0.80304941        1.2978307        1.7240367
  2151.4000        1.0990619        1.0990622        1.0990622        1.0990622        1.5866536        1.2695471
  2151.6000        1.4377107        1.4377110        1.4377110        1.4377110        1.8056496        1.7952971
  2151.8000        1.8213217        1.8213222        1.8213222        1.8213222        2.3047725        4.0125593
  2152.0000        2.3596196        2.3596203        2.3596203        2.3596203        3.4106733        6.0207502
  2152.2000        3.1855910        3.1855919        3.1855919        3.1855919        4.7130726        5.2813898
  2152.4000        4.2448487        4.2448498        4.2448498        4.2448498        5.5232292        1.4139791
  2152.6000        5.3948827        5.3948842        5.3948842        5.3948842        5.2786642       -4.6713082
  2152.8000        6.3563143        6.3563160        6.3563160        6.3563160        3.6547059       -9.1883895
  2153.0000        6.8567651        6.8567669        6.8567669        6.8567669        1.6033084       -9.0652197
  2153.2000        6.9976377        6.9976395        6.9976395        6.9976395       0.28618063E-01   -7.5963278
  2153.4000        6.8682123        6.8682141        6.8682141        6.8682141       -1.4352228       -7.1144330
  2153.6000        6.4235486        6.4235503        6.4235503        6.4235503       -2.8171551       -5.4501553
  2153.8000        5.7413503        5.7413518        5.7413518        5.7413518       -3.6152849       -2.6717860
  2154.0000        4.9774346        1.0030413        4.9774357        1.0030411       -3.8858695      -0.66639364
  2154.2000        4.1870025        1.2653123        4.1873677        1.2656765       -3.8818424        1.3721375
  2154.4000        3.4246977        1.2878675        3.4254272        1.2885961       -3.3370145        3.3559264
  2154.6000        2.8521966        1.3097529        2.8532904        1.3108459       -2.5394718        3.6217194
  2154.8000        2.4089090        1.3309758        2.4103670        1.3324332       -1.8883268        2.9827992
  2155.0000        2.0968659        1.3515434        2.0986883        1.3533653       -1.3463521        2.3742535
  2155.2000        1.8703681        1.3714631        1.8725549        1.3736494      -0.93862538        1.9617419
  2155.4000        1.7214158        1.3907420        1.7239669        1.3932927      -0.56165531        1.4177673
  2155.6000        1.6457060        1.4093875        1.6486215        1.4123026      -0.37151845       0.70922495
  2155.8000        1.5728084        1.4274068        1.5760884        1.4306863      -0.27796533       0.61113956
  2156.0000        1.5345199        1.4448071        1.5381642        1.4484511      -0.12706263       0.58021911
  2156.2000        1.5219833        1.4615959        1.5259921        1.4656042      -0.45877688E-01   0.15808334
  2156.4000        1.5161688        1.4777802        1.5205420        1.4821530      -0.63829294E-01  -0.10289751
  2156.6000        1.4964516        1.4933675        1.5011893        1.4981047      -0.87036693E-01  -0.84297465E-02
  2156.8000        1.4813541        1.5083649        1.4864562        1.5134665      -0.67201193E-01   0.16200812
  2157.0000        1.4695711        1.5227797        1.4750376        1.5282458      -0.22233444E-01   0.34367428E-01
  2157.2000        1.4724607        1.5366193        1.4782916        1.5424498      -0.53454221E-01  -0.23548685E-02
  2157.4000        1.4481895        1.5498908        1.4543848        1.5560857      -0.23175391E-01   0.12252142
  2157.6000        1.4631906        1.5626015        1.4697503        1.5691609      -0.44456549E-02  -0.75628819E-01
  2157.8000        1.4464112        1.5747588        1.4533354        1.5816825      -0.53426919E-01  -0.15118938E-01
  2158.0000        1.4418198        1.5863698        1.4491084        1.5936580      -0.10493230E-01   0.21739873E-01
  2158.2000        1.4422139        1.5974419        1.4498669        1.6050945      -0.44730970E-01   0.37985052E-01
  2158.4000        1.4239274        1.6079823        1.4319448        1.6159993       0.47007907E-02   0.16221289
  2158.6000        1.4440942        1.6179982        1.4524761        1.6263797       0.20154188E-01  -0.10497935
  2158.8000        1.4319891        1.6274971        1.4407354        1.6362429      -0.37290950E-01   0.12641207
  2159.0000        1.4291778        1.6364860        1.4382885        1.6455963       0.70719016E-01   0.27275520
  2159.2000        1.4602767        1.6449723        1.4697518        1.6544471       0.71811129E-01  -0.13214566
  2159.4000        1.4579023        1.6529633        1.4677418        1.6628025       0.17860751E-01  -0.10013310
  2159.6000        1.4674210        1.6604662        1.4776250        1.6706698       0.31757888E-01  -0.67096687E-01
  2159.8000        1.4706054        1.6674884        1.4811738        1.6780563      -0.89779234E-02   0.63176781E-01
  2160.0000        1.4638298        1.6740369        1.4747626        1.6849693       0.57028600E-01   0.95669090E-01
  2160.5000        1.5105255        1.6883843        1.5223693        1.7002278       0.57990440E-01  -0.24189521E-01
  2161.0000        1.5218203        1.6999312        1.5345752        1.7126857       0.32839080E-01  -0.55916181E-01
  2161.5000        1.5433645        1.7087910        1.5570306        1.7224566       0.20742592E-02  -0.56642436E-01
  2162.0000        1.5238945        1.7150774        1.5384716        1.7296540      -0.23803356E-01  -0.19292174E-01
  2162.5000        1.5195612        1.7189039        1.5350493        1.7343916      -0.17217915E-01   0.21137845E-01
  2163.0000        1.5066766        1.7203841        1.5230758        1.7367829      -0.26655108E-02   0.32648715E-01
  2163.5000        1.5168957        1.7196316        1.5342059        1.7369414       0.15430800E-01   0.53895772E-02
  2164.0000        1.5221074        1.7167600        1.5403287        1.7349809       0.27240663E-02   0.20553565E-01
  2164.5000        1.5196197        1.7118828        1.5387521        1.7310147       0.35984365E-01   0.71992083E-01
  2165.0000        1.5580918        1.7051136        1.5781352        1.7251566       0.74716149E-01   0.28067302E-01
  2165.5000        1.5943359        1.6965660        1.6152904        1.7175201       0.64051667E-01  -0.14639773E-01
  2166.0000        1.6221434        1.6863536        1.6440090        1.7082187       0.60076376E-01   0.12357258E-01
  2166.5000        1.6544123        1.6745899        1.6771889        1.6973661       0.76408924E-01   0.17473806E-03
  2167.0000        1.6985524        1.6613886        1.7222400        1.6850758       0.60251114E-01  -0.31327259E-01
  2167.5000        1.7146634        1.6468631        1.7392621        1.6714614       0.45081665E-01   0.25003925E-01
  2168.0000        1.7436340        1.6311271        1.7691438        1.6566365       0.85255039E-01   0.21263438E-01
  2168.5000        1.7999184        1.6142942        1.8263393        1.6407146       0.66345104E-01  -0.58526331E-01
  2169.0000        1.8099791        1.5964779        1.8373111        1.6238093       0.26728708E-01  -0.52514249E-01
  2169.5000        1.8266471        1.5777917        1.8548901        1.6060343       0.13830855E-01  -0.35176957E-01
  2170.0000        1.8238100        1.5583494        1.8529640        1.5875030      -0.84482487E-02  -0.50575749E-01
  2170.5000        1.8181989        1.5382644        1.8482640        1.5683290      -0.36744894E-01  -0.41380158E-01
  2171.0000        1.7870651        1.5176503        1.8180413        1.5486260      -0.49828407E-01  -0.15458858E-01
  2171.5000        1.7683705        1.4966208        1.8002577        1.5285075      -0.52203752E-01  -0.27089861E-01
  2172.0000        1.7348613        1.4752893        1.7676596        1.5080871      -0.76918267E-01  -0.39092181E-01
  2172.5000        1.6914522        1.4537694        1.7251615        1.4874783      -0.91295934E-01  -0.91573667E-02
  2173.0000        1.6435654        1.4321748        1.6781858        1.4667947      -0.86075634E-01  -0.14115559E-01
  2173.5000        1.6053766        1.4106190        1.6409080        1.4461500      -0.10541149      -0.31157981E-01
  2174.0000        1.5381539        1.3892156        1.5745964        1.4256576      -0.11723362      -0.82563736E-02
  2174.5000        1.4881430        1.3680781        1.5254964        1.4054312      -0.11366787       0.44940446E-02
  2175.0000        1.4244861        1.3473202        1.4627506        1.3855843      -0.11273957       0.18494932E-01
  2175.5000        1.3754034        1.3270528        1.4145790        1.3662280      -0.95172934E-01   0.17086106E-01
  2176.0000        1.3293131        1.3073296        1.3693997        1.3474158      -0.95653464E-01  -0.17146173E-02
  2176.5000        1.2797499        1.2881463        1.3207476        1.3291436      -0.96887552E-01   0.14465035E-01
  2177.0000        1.2324256        1.2694964        1.2743343        1.3114047      -0.81188429E-01   0.37677895E-01
  2177.5000        1.1985615        1.2513732        1.2413812        1.2941926      -0.59209656E-01   0.17877888E-01
  2178.0000        1.1732159        1.2337701        1.2169467        1.2775005      -0.63310540E-01  -0.12739497E-01
  2178.5000        1.1352510        1.2166805        1.1798928        1.2613220      -0.71949154E-01   0.80324904E-02
  2179.0000        1.1012668        1.2000977        1.1468196        1.2456503      -0.55278050E-01   0.34401557E-01
  2179.5000        1.0799729        1.1840153        1.1264368        1.2304789      -0.37547597E-01   0.19248490E-01
  2180.0000        1.0637192        1.1684264        1.1110942        1.2158011      -0.36029560E-01   0.17512030E-01
  2180.5000        1.0439433        1.1533246        1.0922294        1.2016103      -0.20035567E-01   0.22399236E-01
  2181.0000        1.0436836        1.1387031        1.0928807        1.1879000      -0.13630324E-01  -0.18609604E-01
  2181.5000        1.0303130        1.1245555        1.0804212        1.1746634      -0.38645170E-01  -0.14989250E-01
  2182.0000        1.0050384        1.1108750        1.0560576        1.1618939      -0.28619574E-01   0.35575578E-01
  2182.5000        1.0016935        1.0976550        1.0536237        1.1495850      -0.30695926E-02   0.13826149E-01
  2183.0000        1.0019688        1.0848890        1.0548101        1.1377300      -0.14793425E-01  -0.21399952E-01
  2183.5000       0.98690003        1.0725702        1.0406524        1.1263223      -0.24469545E-01   0.37568684E-02
  2184.0000       0.97749929        1.0606922        1.0321627        1.1153553      -0.11036556E-01   0.19357701E-01
  2184.5000       0.97586347        1.0492481        1.0314380        1.1048224      -0.51118437E-02   0.90153920E-02
  2185.0000       0.97238744        1.0382316        1.0288730        1.0947169      -0.20211642E-02  -0.79560425E-02
  2185.5000       0.97384231        1.0276358        1.0312389        1.0850322      -0.13067886E-01  -0.20537183E-01
  2186.0000       0.95931956        1.0174543        1.0176272        1.0757617      -0.22558347E-01   0.50837856E-02
  2186.5000       0.95128396        1.0076803        1.0105027        1.0668988      -0.79841007E-02   0.24790963E-01
  2187.0000       0.95133546       0.99830734        1.0114652        1.0584368       0.22326155E-02  -0.39370670E-02
  2187.5000       0.95351657       0.98932869        1.0145574        1.0503693      -0.11921168E-01  -0.19019146E-01
  2188.0000       0.93941429       0.98073777        1.0013662        1.0426894      -0.16786531E-01   0.72461691E-02
  2188.5000       0.93673004       0.97252795       0.99959297        1.0353906      -0.46749986E-02   0.24354118E-01
  2189.0000       0.93473929       0.96469262       0.99851327        1.0284664       0.75675871E-02  -0.20804751E-02
  2189.5000       0.94429763       0.95722517        1.0089827        1.0219100      -0.67554737E-02  -0.15649978E-01
  2190.0000       0.92798382       0.95011896       0.99357991        1.0157148      -0.80823908E-02  -0.94413161E-02
  2190.5000       0.93621524       0.94336738        1.0027224        1.0098743      -0.16196790E-01  -0.12089690E-01
  2191.0000       0.91178703       0.93696381       0.97920523        1.0043818      -0.20172081E-01   0.16299785E-01
  2191.5000       0.91604316       0.93090163       0.98437242       0.99923065       0.10299538E-03   0.12264428E-01
  2192.0000       0.91189002       0.92517423       0.98113034       0.99441431      -0.79076528E-02  -0.54878673E-02
  2192.5000       0.90813551       0.91977498       0.97828688       0.98992611      -0.53848720E-02  -0.16490905E-02
  2193.0000       0.90650515       0.91469726       0.97756758       0.98575945      -0.95567433E-02  -0.36858811E-02
  2193.5000       0.89857876       0.90993446       0.97055225       0.98190771      -0.90707530E-02   0.10866523E-02
  2194.0000       0.89743440       0.90547995       0.97031894       0.97836426      -0.84700909E-02   0.10047439E-01
  2194.5000       0.89010867       0.90132712       0.96390427       0.97512249       0.97668570E-03   0.12340876E-01
  2195.0000       0.89841108       0.89746935       0.97311774       0.97217577       0.38707849E-02  -0.11811201E-01
  2195.5000       0.89397946       0.89390002       0.96959717       0.96951750      -0.10834515E-01  -0.70386677E-02
  2196.0000       0.88757657       0.89061250       0.96410534       0.96714104      -0.31678828E-02   0.95068428E-02
  2196.5000       0.89081157       0.88760019       0.96825141       0.96503978      -0.13276725E-02  -0.10757312E-02
  2197.0000       0.88624889       0.88485645       0.96459978       0.96320710      -0.42436140E-02   0.40954234E-03
  2197.5000       0.88656796       0.88237468       0.96582990       0.96163639      -0.91813019E-03   0.48325996E-02
  2198.0000       0.88533076       0.88014824       0.96550377       0.96032101       0.58898562E-03  -0.21241596E-02
  2198.5000       0.88715694       0.87817054       0.96824100       0.95925436      -0.30422898E-02   0.46578615E-02
  2199.0000       0.88228847       0.87643493       0.96428359       0.95842981       0.52468472E-02   0.17746835E-02
  2199.5000       0.89240379       0.87493481       0.97530997       0.95784075      -0.12676063E-02  -0.13742421E-01
  2200.0000       0.88102087       0.87366356       0.96483810       0.95748055      -0.84955736E-02  -0.18747938E-03
  2201.0000       0.87966043       0.87178116       0.96529978       0.95742027      -0.15488254E-02   0.67415220E-02
  2202.0000       0.87792322       0.87073480       0.96538467       0.95819603       0.49874703E-02   0.53185898E-02
  2203.0000       0.88963537       0.87047152       0.97891895       0.95975486       0.90883543E-02  -0.10880175E-02
  2204.0000       0.89609993       0.87093836       0.98720562       0.96204381       0.28114354E-02  -0.42565100E-02
  2205.0000       0.89525824       0.87208237       0.98818605       0.96500994       0.57533421E-03  -0.40817720E-03
  2206.0000       0.89725059       0.87385060       0.99200051       0.96860028       0.19950810E-02   0.99791817E-03
  2207.0000       0.89924840       0.87619009       0.99582044       0.97276188       0.25711705E-02   0.41090748E-03
  2208.0000       0.90239293       0.87904789        1.0007871       0.97744180       0.28168959E-02   0.83000581E-03
  2209.0000       0.90488220       0.88237104        1.0050985       0.98258707       0.42311822E-02  -0.29896591E-03
  2210.0000       0.91085530       0.88610660        1.0128937       0.98814474       0.22189641E-02  -0.20477117E-03
  2211.0000       0.90932013       0.89020160        1.0131806       0.99406186       0.38216398E-02   0.25883076E-02
  2212.0000       0.91849858       0.89460310        1.0241812        1.0002855       0.73955793E-02  -0.14852736E-02
  2213.0000       0.92411128       0.89925814        1.0316160        1.0067626       0.85109272E-03  -0.48134876E-02
  2214.0000       0.92020076       0.90411377        1.0295276        1.0134404      -0.22313960E-02   0.26551995E-02
  2215.0000       0.91964849       0.90911703        1.0307974        1.0202657       0.61614917E-02   0.52435071E-02
  2216.0000       0.93252375       0.91421497        1.0454948        1.0271858       0.82556182E-02  -0.38974779E-02
  2217.0000       0.93615973       0.91935464        1.0509529        1.0341476      -0.16334641E-02  -0.53308761E-02
  2218.0000       0.92925682       0.92448308        1.0458721        1.0410981      -0.24061340E-02   0.20204089E-02
  2219.0000       0.93134746       0.92954734        1.0497849        1.0479845       0.24073536E-02   0.21623836E-02
  2220.0000       0.93407153       0.93449447        1.0543311        1.0547538       0.19186331E-02  -0.10238558E-03
  2221.0000       0.93518473       0.93927151        1.0572664        1.0613529       0.22025824E-02  -0.27698714E-02
  2222.0000       0.93847669       0.94382550        1.0623805        1.0677290      -0.36211096E-02   0.21842258E-04
  2223.0000       0.92794251       0.94810351        1.0536684        1.0738291       0.22462670E-02   0.74045255E-02
  2224.0000       0.94296923       0.95205256        1.0705172        1.0796003       0.11187941E-01  -0.27985393E-03
  2225.0000       0.95031839       0.95561971        1.0796885        1.0849896       0.16865591E-02  -0.41827924E-02
  2226.0000       0.94634234       0.95875201        1.0775346        1.0899440       0.28223565E-02  -0.91737484E-03
  2227.0000       0.95596310       0.96139649        1.0889774        1.0944106      -0.14819059E-03   0.55970786E-04
  2228.0000       0.94604596       0.96350021        1.0808824        1.0983364       0.29342981E-02   0.48325996E-03
  2229.0000       0.96183170       0.96501022        1.0984903        1.1016685       0.81832933E-03  -0.50742296E-02
  2230.0000       0.94768262       0.96587356        1.0861633        1.1043540      -0.72141611E-02  -0.20873008E-02
  2231.0000       0.94740338       0.96603727        1.0877062        1.1063398      -0.33562723E-02   0.35043173E-02
  2232.0000       0.94097008       0.96544840        1.0830950        1.1075731      -0.20552652E-03   0.48162179E-02
  2233.0000       0.94699232       0.96405400        1.0909393        1.1080008       0.62761636E-02   0.13924440E-03
  2234.0000       0.95352240       0.96180112        1.0992915        1.1075700       0.72962271E-04  -0.61772636E-02
  2235.0000       0.94713825       0.95863680        1.0947295        1.1062278      -0.60783637E-02  -0.60885294E-03
  2236.0000       0.94136568       0.95450809        1.0907790        1.1039212      -0.11447436E-02   0.33473261E-02
  2237.0000       0.94484876       0.94936203        1.0960842        1.1005973       0.61628844E-03  -0.55288216E-03
  2238.0000       0.94259825       0.94314567        1.0956558        1.0962030      -0.22505079E-02  -0.28667964E-02
