# XDI/1.0 Athena/0.9.26
# Element.edge:                  K
# Element.symbol:                P
# Column.1:                      energy eV
# Column.2:                      norm
# Column.3:                      nbkg
# Column.4:                      flat
# Column.5:                      fbkg
# Column.6:                      nder
# Column.7:                      nsec
# Athena.e0:                     2154
# Athena.eshift:                 0
# Athena.rbkg:                   1.0
# Athena.importance:             1
# Athena.standard:               None
# Athena.bkg_kweight:            2
# Athena.edge_step:              0.1075757
# Athena.fixed_step:             no
# Athena.pre_edge_range:         -37.4 -8
# Athena.pre_edge_line:          4.248843 - 0.00196366 * E
# Athena.normalization_range:    23 66.6
# Athena.post_edge_polynomial:   0.719510 - 0.000275219 * E + 0 * E^2 + 0 * E^3
# Athena.spline_range_energy:    0.000 85.601
# Athena.clamps:                 0 24
# Athena.spline_range_k:         0.000 4.740
# Athena.kweight:                2
# Athena.window:                 hanning
# Athena.phase_correction:       no
# Athena.k_range:                2.740 3.000
# Athena.dk:                     1
# Athena.r_range:                1 3
# Athena.dr:                     0.0
# Athena.window:                 hanning
# Athena.plot_multiplier:        1
# Athena.y_offset:               0
# ///
#------------------------
#   e         norm        nbkg        flat        fbkg        nder        nsec
  2105.9000       0.28274051       0.28274047       0.28274047       0.28274047      -0.15499689       0.37883840E-01
  2107.9000      -0.27253276E-01  -0.27253272E-01  -0.27253272E-01  -0.27253272E-01  -0.79229214E-01   0.37587303E-01
  2109.9000      -0.34176343E-01  -0.34176338E-01  -0.34176338E-01  -0.34176338E-01  -0.46476798E-02   0.21749954E-01
  2111.9000      -0.45843995E-01  -0.45843988E-01  -0.45843988E-01  -0.45843988E-01   0.77706028E-02   0.40238612E-02
  2113.9000      -0.30939317E-02  -0.30939313E-02  -0.30939313E-02  -0.30939313E-02   0.11447765E-01   0.67976166E-02
  2115.9000      -0.52934790E-04  -0.52934794E-04  -0.52934782E-04  -0.52934794E-04   0.34961069E-01   0.81874509E-03
  2117.9000       0.13675034       0.13675032       0.13675032       0.13675032       0.14722745E-01  -0.18005468E-01
  2119.9000       0.58838047E-01   0.58838038E-01   0.58838038E-01   0.58838038E-01  -0.37060802E-01  -0.81074252E-02
  2121.9000      -0.11492862E-01  -0.11492861E-01  -0.11492861E-01  -0.11492861E-01  -0.17706955E-01   0.70003297E-02
  2123.9000      -0.11989775E-01  -0.11989773E-01  -0.11989773E-01  -0.11989773E-01  -0.90594831E-02   0.83978376E-02
  2125.9000      -0.47730795E-01  -0.47730787E-01  -0.47730787E-01  -0.47730787E-01   0.15884395E-01   0.74592252E-04
  2127.9000       0.51547806E-01   0.51547798E-01   0.51547798E-01   0.51547798E-01  -0.87611141E-02  -0.11730272E-01
  2129.9000      -0.82775251E-01  -0.82775238E-01  -0.82775238E-01  -0.82775238E-01  -0.31036692E-01   0.33488673E-02
  2131.9000      -0.72598961E-01  -0.72598950E-01  -0.72598950E-01  -0.72598950E-01   0.46343550E-02   0.84301254E-02
  2133.9000      -0.64237831E-01  -0.64237821E-01  -0.64237821E-01  -0.64237821E-01   0.26838097E-02   0.35193362E-03
  2135.9000      -0.61863722E-01  -0.61863713E-01  -0.61863713E-01  -0.61863713E-01   0.60420895E-02   0.20012870E-02
  2137.9000      -0.40069473E-01  -0.40069467E-01  -0.40069467E-01  -0.40069467E-01   0.10688958E-01   0.13255168E-02
  2139.9000      -0.19107892E-01  -0.19107890E-01  -0.19107889E-01  -0.19107890E-01   0.11344157E-01  -0.38435467E-02
  2140.1000      -0.15112327E-01  -0.15112325E-01  -0.15112325E-01  -0.15112325E-01   0.22331549E-02  -0.66280424E-01
  2140.3000      -0.18214630E-01  -0.18214628E-01  -0.18214628E-01  -0.18214628E-01  -0.15168013E-01   0.31976848E-01
  2140.5000      -0.21179532E-01  -0.21179529E-01  -0.21179529E-01  -0.21179529E-01   0.15023894E-01   0.17168610E-01
  2140.7000      -0.12205073E-01  -0.12205071E-01  -0.12205071E-01  -0.12205071E-01  -0.83005685E-02  -0.11889862
  2140.9000      -0.24499760E-01  -0.24499756E-01  -0.24499756E-01  -0.24499756E-01  -0.32535553E-01   0.76998116E-03
  2141.1000      -0.25219294E-01  -0.25219290E-01  -0.25219290E-01  -0.25219290E-01  -0.79925761E-02   0.10972072
  2141.3000      -0.27696790E-01  -0.27696786E-01  -0.27696786E-01  -0.27696786E-01   0.11352734E-01   0.52575020E-01
  2141.5000      -0.20678200E-01  -0.20678197E-01  -0.20678197E-01  -0.20678197E-01   0.13037432E-01  -0.91777537E-01
  2141.7000      -0.22481818E-01  -0.22481814E-01  -0.22481814E-01  -0.22481814E-01  -0.25358280E-01   0.35106098E-02
  2141.9000      -0.30821512E-01  -0.30821508E-01  -0.30821508E-01  -0.30821508E-01   0.14441676E-01   0.18722563
  2142.1000      -0.16705147E-01  -0.16705145E-01  -0.16705145E-01  -0.16705145E-01   0.49531971E-01  -0.50441232E-02
  2142.3000      -0.11008724E-01  -0.11008722E-01  -0.11008722E-01  -0.11008722E-01   0.12424027E-01   0.22294478E-01
  2142.5000      -0.11735537E-01  -0.11735535E-01  -0.11735535E-01  -0.11735535E-01   0.58449762E-01   0.32516514
  2142.7000       0.12371181E-01   0.12371179E-01   0.12371179E-01   0.12371179E-01   0.14249008      -0.27079865E-01
  2142.9000       0.45260497E-01   0.45260490E-01   0.45260490E-01   0.45260490E-01   0.47617816E-01  -0.15266861
  2143.7000       0.59988998E-01   0.59988988E-01   0.59988989E-01   0.59988988E-01  -0.10178525E-01  -0.10546020
  2143.9000       0.35081971E-01   0.35081966E-01   0.35081966E-01   0.35081966E-01  -0.57842387E-01  -0.70481599E-01
  2144.1000       0.36852043E-01   0.36852037E-01   0.36852037E-01   0.36852037E-01  -0.38371165E-01  -0.53474561E-02
  2144.3000       0.19733505E-01   0.19733502E-01   0.19733502E-01   0.19733502E-01  -0.59981369E-01   0.19375545E-01
  2144.5000       0.12859495E-01   0.12859493E-01   0.12859493E-01   0.12859493E-01  -0.30620947E-01   0.20603634
  2144.7000       0.74851264E-02   0.74851253E-02   0.74851253E-02   0.74851253E-02   0.22433166E-01   0.17721704
  2144.9000       0.21832761E-01   0.21832758E-01   0.21832758E-01   0.21832758E-01   0.40265867E-01  -0.49574807E-01
  2145.1000       0.23591473E-01   0.23591470E-01   0.23591470E-01   0.23591470E-01   0.26032432E-02  -0.82042123E-01
  2145.3000       0.22874059E-01   0.22874055E-01   0.22874055E-01   0.22874055E-01   0.74490176E-02   0.27544387E-01
  2145.5000       0.26571080E-01   0.26571076E-01   0.26571076E-01   0.26571076E-01   0.13620998E-01  -0.10881351E-01
  2145.7000       0.28322458E-01   0.28322453E-01   0.28322453E-01   0.28322453E-01   0.30964773E-02   0.49602927E-01
  2145.9000       0.27809671E-01   0.27809667E-01   0.27809667E-01   0.27809667E-01   0.33462169E-01   0.44491680E-01
  2146.1000       0.41707325E-01   0.41707319E-01   0.41707319E-01   0.41707319E-01   0.20893149E-01  -0.44066714E-01
  2146.5000       0.40345561E-01   0.40345555E-01   0.40345555E-01   0.40345555E-01   0.70221399E-02   0.21074052E-01
  2146.7000       0.45920609E-01   0.45920602E-01   0.45920602E-01   0.45920602E-01   0.33537581E-01   0.40746700E-01
  2146.9000       0.53760593E-01   0.53760585E-01   0.53760585E-01   0.53760585E-01   0.23320820E-01   0.12464597E-01
  2147.1000       0.55248937E-01   0.55248929E-01   0.55248929E-01   0.55248929E-01   0.38523419E-01   0.47774040E-01
  2147.3000       0.69169961E-01   0.69169950E-01   0.69169950E-01   0.69169950E-01   0.42430436E-01   0.32420256E-01
  2147.5000       0.72221111E-01   0.72221101E-01   0.72221101E-01   0.72221101E-01   0.51491522E-01   0.39384946E-01
  2147.7000       0.89766569E-01   0.89766556E-01   0.89766556E-01   0.89766556E-01   0.58184414E-01  -0.28127813E-01
  2147.9000       0.95494877E-01   0.95494863E-01   0.95494863E-01   0.95494863E-01   0.40240396E-01   0.59291977E-02
  2148.1000       0.10586273       0.10586271       0.10586271       0.10586271       0.60556093E-01   0.24677045E-01
  2148.3000       0.11971731       0.11971730       0.11971730       0.11971730       0.50111214E-01   0.87531398E-03
  2148.5000       0.12590721       0.12590719       0.12590719       0.12590719       0.60906219E-01   0.38482790E-01
  2148.7000       0.14407980       0.14407978       0.14407978       0.14407978       0.65504331E-01  -0.71461084E-01
  2148.9000       0.15210895       0.15210892       0.15210892       0.15210892       0.32321785E-01   0.50739743E-01
  2149.1000       0.15700852       0.15700849       0.15700849       0.15700849       0.85800228E-01   0.22504824
  2149.3000       0.18642904       0.18642901       0.18642901       0.18642901       0.12234108       0.16244697
  2149.5000       0.20594495       0.20594492       0.20594492       0.20594492       0.15077902       0.24043822
  2149.7000       0.24674064       0.24674061       0.24674061       0.24674061       0.21851637       0.30542910
  2149.9000       0.29335150       0.29335145       0.29335145       0.29335145       0.27295065       0.46663618
  2150.1000       0.35592090       0.35592085       0.35592085       0.35592085       0.40517084       0.82373622
  2150.3000       0.45541984       0.45541977       0.45541977       0.45541977       0.60244514        1.3889669
  2150.5000       0.59689896       0.59689887       0.59689887       0.59689887       0.96075762        1.9782714
  2150.7000       0.83972289       0.83972276       0.83972276       0.83972276        1.3937537        2.1207210
  2150.9000        1.1544004        1.1544003        1.1544003        1.1544003        1.8090460        2.2733624
  2151.1000        1.5633413        1.5633411        1.5633411        1.5633411        2.3030987        5.3716972
  2151.3000        2.0756399        2.0756396        2.0756396        2.0756396        3.9577249        7.7511923
  2151.5000        3.1464313        3.1464308        3.1464308        3.1464308        5.4035756        2.0658496
  2151.7000        4.2370701        4.2370695        4.2370695        4.2370695        4.7840648       -4.1532684
  2151.9000        5.0600572        5.0600564        5.0600564        5.0600564        3.7422682       -7.2373041
  2152.1000        5.7339774        5.7339766        5.7339766        5.7339766        1.8891431       -10.143366
  2152.3000        5.8157144        5.8157135        5.8157135        5.8157135      -0.31507805       -8.7183852
  2152.5000        5.6079462        5.6079454        5.6079454        5.6079454       -1.5982110       -5.2076801
  2152.7000        5.1764300        5.1764292        5.1764292        5.1764292       -2.3981501       -3.2406812
  2152.9000        4.6486862        4.6486855        4.6486855        4.6486855       -2.8944835      -0.14861862
  2153.1000        4.0186366        4.0186360        4.0186360        4.0186360       -2.4575975        2.7791550
  2153.3000        3.6656471        3.6656466        3.6656466        3.6656466       -1.7828215        2.4205331
  2153.5000        3.3055081        3.3055076        3.3055076        3.3055076       -1.4893843        1.8890933
  2153.7000        3.0698934        3.0698930        3.0698930        3.0698930       -1.0271841        2.0546383
  2153.9000        2.8946344        2.8946340        2.8962037        2.8962037      -0.66752898        1.7816224
  2154.1000        2.8028818        1.1018418        2.8013120        1.1002724      -0.31453518        1.2924691
  2154.3000        2.7688203        1.3727522        2.7641114        1.3680438      -0.15054133       0.43219456
  2154.5000        2.7426653        1.3877246        2.7348173        1.3798771      -0.14165736       0.23844782
  2154.7000        2.7121574        1.4022981        2.7011704        1.3913115      -0.55162204E-01  -0.21271129
  2154.9000        2.7206004        1.4164772        2.7064743        1.4023514      -0.22674187      -0.98925527
  2155.1000        2.6214606        1.4302662        2.6041955        1.4130014      -0.45086431      -0.48993995
  2155.3000        2.5402547        1.4436698        2.5198504        1.4232659      -0.42271785      -0.56726923
  2155.5000        2.4523735        1.4566923        2.4288302        1.4331493      -0.67777200      -0.76965465
  2155.7000        2.2691459        1.4693381        2.2424635        1.4426561      -0.73057971       0.21772462E-01
  2155.9000        2.1601416        1.4816119        2.1303202        1.4517907      -0.66906302       0.16909607E-01
  2156.1000        2.0015207        1.4935179        1.9685602        1.4605577      -0.72381587      -0.12359787
  2156.3000        1.8706153        1.5050606        1.8345157        1.4689614      -0.71850217       0.28164822
  2156.5000        1.7141198        1.5162446        1.6748812        1.4770062      -0.61115658       0.54569779
  2156.7000        1.6261526        1.5270742        1.5837750        1.4846968      -0.50022305       0.16510643
  2156.9000        1.5140306        1.5375540        1.4685138        1.4920375      -0.54511401       0.40155624
  2157.1000        1.4081070        1.5476883        1.3594512        1.4990327      -0.33960055       0.79227070
  2157.3000        1.3781904        1.5574817        1.3263955        1.5056870      -0.22820572       0.23550861E-01
  2157.5000        1.3168248        1.5669385        1.2618908        1.5120048      -0.33018021       0.42838445E-01
  2157.7000        1.2461183        1.5760633        1.1880453        1.5179904      -0.21107035       0.53463929
  2157.9000        1.2323966        1.5848605        1.1711845        1.5236485      -0.11632449       0.23324451
  2158.1000        1.1995885        1.5933345        1.1352373        1.5289835      -0.11777254       0.24866040
  2158.3000        1.1852876        1.6014898        1.1177973        1.5339997      -0.16860333E-01   0.38735984
  2158.5000        1.1928443        1.6093309        1.1222150        1.5387017       0.37171394E-01   0.77885282E-01
  2158.7000        1.2001562        1.6168622        1.1263877        1.5430939       0.14293780E-01  -0.15688373E-01
  2158.9000        1.1985619        1.6240881        1.1216544        1.5471808       0.30896045E-01   0.16625737
  2159.1000        1.2125146        1.6310132        1.1324680        1.5509668       0.80796727E-01   0.31582416
  2159.3000        1.2308805        1.6376419        1.1476949        1.5544564       0.15722571       0.35192316
  2159.5000        1.2754049        1.6439786        1.1890801        1.5576541       0.22156599      -0.10971113
  2159.7000        1.3195069        1.6500278        1.2300431        1.5605642       0.11334126      -0.54996878
  2159.9000        1.3207414        1.6557940        1.2281384        1.5631912       0.15784796E-02  -0.23829735E-01
  2160.4000        1.3206119        1.6690002        1.2201613        1.5685498       0.96660442E-01   0.18677359
  2160.9000        1.4174018        1.6805348        1.3091035        1.5722367       0.18835207       0.12789126
  2161.4000        1.5089640        1.6904674        1.3928179        1.5743216       0.22455170       0.11608107E-01
  2161.9000        1.6419535        1.6988675        1.5179597        1.5748740       0.19996018      -0.10723687
  2162.4000        1.7089241        1.7058049        1.5770827        1.5739637       0.11731483      -0.17845120
  2162.9000        1.7592683        1.7113491        1.6195791        1.5716602       0.21508979E-01  -0.21446371
  2163.4000        1.7304331        1.7155697        1.5828962        1.5680331      -0.97148877E-01  -0.13160632
  2163.9000        1.6621195        1.7185364        1.5067349        1.5631521      -0.11009734       0.42334102E-01
  2164.4000        1.6203358        1.7203187        1.4571035        1.5570867      -0.54814774E-01   0.13041916
  2164.9000        1.6073047        1.7209863        1.4362247        1.5499065       0.20321815E-01   0.11274500
  2165.4000        1.6406576        1.7206087        1.4617299        1.5416813       0.57930221E-01   0.35081906E-01
  2165.9000        1.6652349        1.7192556        1.4784595        1.5324805       0.55403721E-01  -0.40194957E-03
  2166.4000        1.6960613        1.7169967        1.5014382        1.5223738       0.57528272E-01   0.15153239E-01
  2166.9000        1.7227632        1.7139014        1.5202924        1.5114309       0.70556959E-01   0.52627135E-01
  2167.4000        1.7666183        1.7100395        1.5562998        1.4997212       0.11015541       0.36176391E-01
  2167.9000        1.8329186        1.7054805        1.6147524        1.4873145       0.10673335      -0.20055276E-01
  2168.4000        1.8733516        1.7002940        1.6473377        1.4742804       0.90100131E-01  -0.68571630E-01
  2168.9000        1.9230187        1.6945497        1.6891571        1.4606884       0.38161720E-01  -0.10075232
  2169.4000        1.9115133        1.6883172        1.6698040        1.4466082      -0.10652192E-01  -0.46293175E-01
  2169.9000        1.9123665        1.6816661        1.6628095        1.4321093      -0.81314550E-02  -0.11469692E-01
  2170.4000        1.9033819        1.6746659        1.6459772        1.4172615      -0.22121884E-01  -0.11977614E-01
  2170.9000        1.8902446        1.6673864        1.6249922        1.4021343      -0.20109069E-01  -0.43571836E-01
  2171.4000        1.8832728        1.6598971        1.6101727        1.3867973      -0.65693720E-01  -0.47071883E-01
  2171.9000        1.8245509        1.6522676        1.5436031        1.3713201      -0.67180952E-01   0.60485323E-01
  2172.4000        1.8160919        1.6445676        1.5272964        1.3557723      -0.52083967E-02   0.55707013E-01
  2172.9000        1.8193425        1.6368666        1.5226993        1.3402236      -0.11473939E-01  -0.54271558E-01
  2173.4000        1.8046179        1.6292343        1.5001270        1.3247436      -0.59479955E-01  -0.56716907E-01
  2173.9000        1.7598626        1.6217402        1.4475240        1.3094019      -0.68190846E-01   0.97329616E-02
  2174.4000        1.7364271        1.6144541        1.4162408        1.2942680      -0.49746993E-01  -0.68384413E-02
  2174.9000        1.7101156        1.6074454        1.3820816        1.2794117      -0.75029287E-01  -0.54659750E-01
  2175.4000        1.6613978        1.6007839        1.3255161        1.2649024      -0.10440674       0.11634042E-01
  2175.9000        1.6057088        1.5945203        1.2619795        1.2507912      -0.63395245E-01   0.76941180E-01
  2176.4000        1.5980025        1.5886580        1.2464255        1.2370811      -0.27465564E-01   0.14376204E-01
  2176.9000        1.5782433        1.5831922        1.2188185        1.2237677      -0.49019041E-01  -0.71470426E-01
  2177.4000        1.5489835        1.5781187        1.1817110        1.2108465      -0.98935991E-01  -0.15615797E-01
  2177.9000        1.4793073        1.5734330        1.1041871        1.1983130      -0.64634837E-01   0.68302052E-01
  2178.4000        1.4843487        1.5691305        1.1013808        1.1861629      -0.30633938E-01   0.90120738E-02
  2178.9000        1.4486733        1.5652068        1.0578578        1.1743915      -0.55622764E-01   0.27036779E-02
  2179.4000        1.4287259        1.5616574        1.0300626        1.1629944      -0.27930260E-01   0.32859935E-01
  2179.9000        1.4207431        1.5584780        1.0142321        1.1519672      -0.22762828E-01   0.11839664E-01
  2180.4000        1.4059631        1.5556639       0.99160442        1.1413054      -0.16090596E-01   0.63267086E-02
  2180.9000        1.4046525        1.5532107       0.98244613        1.1310045      -0.16436120E-01   0.57971279E-02
  2181.4000        1.3895270        1.5511140       0.95947290        1.1210601      -0.10293468E-01   0.20373284E-01
  2181.9000        1.3943590        1.5493692       0.95645726        1.1114677       0.39371645E-02   0.49054766E-02
  2182.4000        1.3934641        1.5479720       0.94771467        1.1022228      -0.53879912E-02   0.45011101E-02
  2182.9000        1.3889710        1.5469178       0.93537387        1.0933209       0.84382746E-02   0.28836814E-01
  2183.4000        1.4019024        1.5462023       0.94045754        1.0847576       0.23448823E-01   0.84723607E-02
  2183.9000        1.4124198        1.5458208       0.94312728        1.0765284       0.16910635E-01  -0.64957059E-02
  2184.4000        1.4188130        1.5457689       0.94167277        1.0686289       0.16953117E-01   0.15548495E-01
  2184.9000        1.4293730        1.5460423       0.94438500        1.0610545       0.32459131E-01   0.30670035E-01
  2185.4000        1.4512722        1.5466363       0.95843650        1.0538009       0.47623152E-01  -0.21566677E-01
  2185.9000        1.4769961        1.5475466       0.97631274        1.0468634       0.10892454E-01  -0.43561052E-01
  2186.4000        1.4621646        1.5487686       0.95363355        1.0402378       0.40620998E-02   0.22883238E-01
  2186.9000        1.4810582        1.5502980       0.96467944        1.0339194       0.33775692E-01   0.12803079E-02
  2187.4000        1.4959403        1.5521301       0.97171383        1.0279039       0.53424077E-02  -0.27651044E-01
  2187.9000        1.4864006        1.5542606       0.95432644        1.0221867       0.61246477E-02   0.26928483E-01
  2188.4000        1.5020650        1.5566851       0.96214308        1.0167634       0.32270891E-01   0.54629353E-01
  2188.9000        1.5186715        1.5593989       0.97090193        1.0116295       0.60754001E-01   0.43561889E-02
  2189.4000        1.5628190        1.5623977        1.0072017        1.0067806       0.36627080E-01  -0.89236895E-01
  2189.9000        1.5552986        1.5656769       0.99183360        1.0022122      -0.28482894E-01  -0.53851203E-01
  2190.4000        1.5343361        1.5692322       0.96302338       0.99791974      -0.17224123E-01   0.37653398E-01
  2190.9000        1.5380745        1.5730590       0.95891408       0.99389885       0.91705033E-02   0.31486112E-01
  2191.4000        1.5435066        1.5771529       0.95649848       0.99014504       0.14261988E-01  -0.79799632E-02
  2191.9000        1.5523365        1.5815094       0.95748067       0.98665383       0.11905401E-02   0.11296233E-02
  2192.4000        1.5446971        1.5861240       0.94199362       0.98342076       0.15391612E-01   0.47929047E-01
  2192.9000        1.5677281        1.5909923       0.95717687       0.98044136       0.49119587E-01   0.23636289E-01
  2193.4000        1.5938167        1.5961098       0.97541779       0.97771115       0.39027901E-01   0.48979377E-01
  2193.9000        1.6067560        1.6014720       0.98050937       0.97522568       0.98098964E-01   0.68737653E-02
  2194.4000        1.6919157        1.6070745        1.0578213       0.97298046       0.45901667E-01  -0.20848909E-01
  2197.9000        1.7903626        1.6526438        1.1013344       0.96361581       0.14703329E-01  -0.24381974E-01
  2198.4000        1.7507290        1.6600074        1.0538530       0.96313178      -0.51626229E-01  -0.12768940E-01
  2198.9000        1.7387364        1.6675712        1.0340128       0.96284779       0.19343885E-02   0.11395540
  2199.4000        1.7526634        1.6753304        1.0400920       0.96275937       0.62329171E-01   0.14973861E-01
  2199.9000        1.8010656        1.6832808        1.0806465       0.96286205       0.16908249E-01  -0.58484344E-01
  2200.9000        1.7780257        1.6997370        1.0419113       0.96362283      -0.25397346E-01  -0.20042788E-01
  2201.9000        1.7502709        1.7169040       0.99846105       0.96509439      -0.23177327E-01   0.28292476E-01
  2202.9000        1.7316711        1.7347459       0.96416585       0.96724096       0.31187607E-01   0.24397335E-01
  2203.9000        1.8126461        1.7532272        1.0294455       0.97002679       0.25617343E-01  -0.26501807E-01
  2204.9000        1.7829058        1.7723119       0.98400972       0.97341614      -0.21816007E-01  -0.14103698E-01
  2205.9000        1.7690141        1.7919644       0.95442265       0.97737324      -0.25900541E-02   0.18372553E-01
  2206.9000        1.7777257        1.8121489       0.94743881       0.98186236       0.14929100E-01   0.66418355E-02
  2207.9000        1.7988723        1.8328297       0.95289004       0.98684772       0.10693617E-01   0.12079635E-02
  2208.9000        1.7991129        1.8539710       0.93743524       0.99229359       0.17345027E-01   0.89296434E-02
  2209.9000        1.8335623        1.8755370       0.95618929       0.99816421       0.28552904E-01   0.65346319E-02
  2210.9000        1.8562187        1.8974920       0.96315024        1.0044238       0.30414291E-01  -0.76185897E-02
  2211.9000        1.8943909        1.9198003       0.98562706        1.0110367       0.13315724E-01  -0.10188873E-01
  2212.9000        1.8828501        1.9424260       0.95839088        1.0179670       0.10036545E-01   0.30245729E-01
  2213.9000        1.9144640        1.9653335       0.97430934        1.0251791       0.73807183E-01   0.15458783E-01
  2214.9000        2.0304645        1.9884870        1.0746144        1.0326372       0.40954111E-01  -0.25376981E-01
  2216.9000        2.0373263        2.0353889        1.0500855        1.0481483      -0.23237609E-02  -0.96883987E-02
  2217.9000        2.0234932        2.0590658        1.0205569        1.0561298       0.11888915E-01   0.20902555E-01
  2218.9000        2.0611042        2.0828457        1.0424725        1.0642143       0.39481349E-01   0.10129125E-01
  2219.9000        2.1024559        2.1066928        1.0681288        1.0723660       0.32147164E-01  -0.11954235E-01
  2220.9000        2.1253985        2.1305714        1.0753760        1.0805492       0.15572880E-01  -0.31108099E-02
  2221.9000        2.1336017        2.1544457        1.0678838        1.0887281       0.25925544E-01   0.49552788E-02
  2222.9000        2.1772496        2.1782799        1.0958363        1.0968669       0.25483437E-01  -0.48860252E-02
  2223.9000        2.1845686        2.2020384        1.0874598        1.1049300       0.16153494E-01  -0.12693389E-03
  2224.9000        2.2095566        2.2256853        1.0967524        1.1128815       0.25229569E-01   0.48318308E-02
  2225.9000        2.2350277        2.2491850        1.1065282        1.1206858       0.25817156E-01  -0.34711841E-02
  2226.9000        2.2611909        2.2725016        1.1169960        1.1283070       0.18287201E-01  -0.11056495E-01
  2227.9000        2.2716021        2.2955994        1.1117118        1.1357094       0.37041657E-02  -0.28084414E-02
  2228.9000        2.2685992        2.3184426        1.0930135        1.1428572       0.12670318E-01   0.87571602E-02
  2229.9000        2.2969427        2.3409955        1.1056616        1.1497147       0.21218486E-01   0.49064062E-02
  2230.9000        2.3110362        2.3632224        1.1040596        1.1562462       0.22483131E-01   0.21577832E-03
  2231.9000        2.3419090        2.3850875        1.1192370        1.1624159       0.21650043E-01   0.15755652E-02
  2232.9000        2.3543363        2.4065550        1.1159689        1.1681880       0.25634261E-01  -0.46432426E-03
  2233.9000        2.3931775        2.4275892        1.1391148        1.1735268       0.20721394E-01  -0.53663382E-02
  2234.9000        2.3957791        2.4481543        1.1260209        1.1783965       0.14901585E-01   0.60398408E-02
  2235.9000        2.4229807        2.4682146        1.1375271        1.1827614       0.32801076E-01   0.13505120E-01
  2236.9000        2.4613812        2.4877344        1.1602322        1.1865857       0.41911824E-01   0.63110219E-02
  2237.9000        2.5068043        2.5066778        1.1899599        1.1898338       0.45423120E-01   0.35112954E-02
