# XDI/1.0 Athena/0.9.26
# Element.edge:                  K
# Element.symbol:                P
# Column.1:                      energy eV
# Column.2:                      norm
# Column.3:                      nbkg
# Column.4:                      flat
# Column.5:                      fbkg
# Column.6:                      nder
# Column.7:                      nsec
# Athena.e0:                     2154
# Athena.eshift:                 0
# Athena.rbkg:                   1.0
# Athena.importance:             1
# Athena.standard:               None
# Athena.bkg_kweight:            2
# Athena.edge_step:              0.0451115
# Athena.fixed_step:             no
# Athena.pre_edge_range:         -27.4 -8
# Athena.pre_edge_line:          0.068208 - 2.86813e-005 * E
# Athena.normalization_range:    25 53.6
# Athena.post_edge_polynomial:   0.470426 - 0.000194469 * E + 0 * E^2 + 0 * E^3
# Athena.spline_range_energy:    0.000 85.601
# Athena.clamps:                 0 24
# Athena.spline_range_k:         0.000 4.740
# Athena.kweight:                2
# Athena.window:                 hanning
# Athena.phase_correction:       no
# Athena.k_range:                2.740 3.000
# Athena.dk:                     1
# Athena.r_range:                1 3
# Athena.dr:                     0.0
# Athena.window:                 hanning
# Athena.plot_multiplier:        1
# Athena.y_offset:               0
# ///
#------------------------
#   e         norm        nbkg        flat        fbkg        nder        nsec
  2106.2000       0.22148524E-01   0.22148516E-01   0.22148516E-01   0.22148516E-01   0.31885734E-02  -0.17908965E-02
  2108.2000       0.28525671E-01   0.28525660E-01   0.28525660E-01   0.28525660E-01  -0.39321965E-03  -0.95010452E-03
  2110.2000       0.20575645E-01   0.20575638E-01   0.20575638E-01   0.20575638E-01  -0.61184469E-03   0.48402309E-03
  2112.2000       0.26078292E-01   0.26078283E-01   0.26078283E-01   0.26078283E-01   0.15428727E-02   0.15210927E-03
  2114.2000       0.26747136E-01   0.26747127E-01   0.26747127E-01   0.26747127E-01  -0.34076033E-05  -0.56050029E-03
  2116.2000       0.26064661E-01   0.26064652E-01   0.26064652E-01   0.26064652E-01  -0.69912845E-03  -0.14860407E-03
  2118.2000       0.23950622E-01   0.23950614E-01   0.23950614E-01   0.23950614E-01  -0.59782387E-03   0.31740809E-04
  2120.2000       0.23673366E-01   0.23673357E-01   0.23673358E-01   0.23673357E-01  -0.57216522E-03  -0.64051041E-03
  2122.2000       0.21661961E-01   0.21661954E-01   0.21661954E-01   0.21661954E-01  -0.31598655E-02  -0.64739613E-03
  2124.2000       0.11033904E-01   0.11033900E-01   0.11033900E-01   0.11033900E-01  -0.31617497E-02   0.41209019E-03
  2126.2000       0.90149625E-02   0.90149593E-02   0.90149593E-02   0.90149593E-02  -0.15115047E-02   0.57686254E-03
  2128.2000       0.49878849E-02   0.49878831E-02   0.49878832E-02   0.49878831E-02  -0.85429959E-03   0.14141355E-03
  2130.2000       0.55977641E-02   0.55977621E-02   0.55977621E-02   0.55977621E-02  -0.94585055E-03  -0.89833001E-04
  2132.2000       0.12044827E-02   0.12044823E-02   0.12044823E-02   0.12044823E-02  -0.12136316E-02  -0.47626454E-03
  2134.2000       0.74323778E-03   0.74323749E-03   0.74323751E-03   0.74323749E-03  -0.28509087E-02   0.10095822E-03
  2136.2000      -0.10199152E-01  -0.10199148E-01  -0.10199148E-01  -0.10199148E-01  -0.80979872E-03   0.13129833E-02
  2138.2000      -0.24959571E-02  -0.24959562E-02  -0.24959562E-02  -0.24959562E-02   0.24010245E-02  -0.52704026E-04
  2140.2000      -0.59505409E-03  -0.59505391E-03  -0.59505388E-03  -0.59505391E-03  -0.10206148E-02  -0.25321863E-02
  2140.4000      -0.47413097E-02  -0.47413081E-02  -0.47413080E-02  -0.47413081E-02  -0.31697854E-02   0.16586560E-01
  2140.6000      -0.18629682E-02  -0.18629676E-02  -0.18629676E-02  -0.18629676E-02   0.56140090E-02  -0.19799559E-01
  2140.8000      -0.24957061E-02  -0.24957053E-02  -0.24957052E-02  -0.24957053E-02  -0.11089609E-01  -0.33120724E-01
  2141.0000      -0.62988119E-02  -0.62988097E-02  -0.62988096E-02  -0.62988097E-02  -0.76342805E-02   0.28322888E-01
  2141.2000      -0.55494183E-02  -0.55494164E-02  -0.55494163E-02  -0.55494164E-02   0.23954605E-03   0.53437058E-02
  2141.4000      -0.62029935E-02  -0.62029913E-02  -0.62029912E-02  -0.62029913E-02  -0.54967982E-02   0.14541752E-01
  2141.6000      -0.77481376E-02  -0.77481348E-02  -0.77481348E-02  -0.77481348E-02   0.60562467E-02   0.64303194E-01
  2141.8000      -0.37804948E-02  -0.37804934E-02  -0.37804934E-02  -0.37804934E-02   0.20224479E-01  -0.38892536E-01
  2142.0000       0.34165418E-03   0.34165404E-03   0.34165406E-03   0.34165404E-03  -0.95007675E-02  -0.13781967
  2142.2000      -0.75808018E-02  -0.75807991E-02  -0.75807991E-02  -0.75807991E-02  -0.34903390E-01   0.42123420E-01
  2142.4000      -0.13619702E-01  -0.13619697E-01  -0.13619697E-01  -0.13619697E-01   0.73486006E-02   0.14946166
  2142.6000      -0.46413615E-02  -0.46413599E-02  -0.46413599E-02  -0.46413599E-02   0.24881276E-01  -0.11125216E-02
  2142.8000      -0.36671915E-02  -0.36671902E-02  -0.36671902E-02  -0.36671902E-02   0.69035920E-02  -0.44707297E-01
  2143.0000      -0.18799247E-02  -0.18799241E-02  -0.18799241E-02  -0.18799241E-02   0.69983572E-02  -0.15475549E-02
  2143.2000      -0.86784863E-03  -0.86784834E-03  -0.86784832E-03  -0.86784834E-03   0.62845700E-02  -0.22370967E-01
  2143.4000       0.63390325E-03   0.63390300E-03   0.63390302E-03   0.63390300E-03  -0.19500294E-02   0.15443684E-01
  2143.6000      -0.16478604E-02  -0.16478598E-02  -0.16478598E-02  -0.16478598E-02   0.12462044E-01   0.20155622E-01
  2143.8000       0.56187207E-02   0.56187186E-02   0.56187187E-02   0.56187186E-02   0.61122192E-02  -0.69554074E-01
  2144.0000       0.79702727E-03   0.79702697E-03   0.79702699E-03   0.79702697E-03  -0.15359586E-01  -0.24054296E-01
  2144.2000      -0.52511377E-03  -0.52511361E-03  -0.52511358E-03  -0.52511361E-03  -0.35094993E-02   0.58387295E-01
  2144.4000      -0.60677245E-03  -0.60677226E-03  -0.60677224E-03  -0.60677226E-03   0.79953317E-02   0.51791136E-01
  2144.6000       0.26730189E-02   0.26730179E-02   0.26730180E-02   0.26730179E-02   0.17206955E-01  -0.19041715E-01
  2144.8000       0.62760096E-02   0.62760073E-02   0.62760073E-02   0.62760073E-02   0.37864589E-03  -0.31070248E-01
  2145.0000       0.28244773E-02   0.28244762E-02   0.28244763E-02   0.28244762E-02   0.47788558E-02   0.22923764E-01
  2145.2000       0.81875519E-02   0.81875490E-02   0.81875490E-02   0.81875490E-02   0.95481514E-02  -0.15914739E-01
  2145.4000       0.66437378E-02   0.66437354E-02   0.66437355E-02   0.66437354E-02  -0.15870398E-02   0.17326519E-01
  2145.6000       0.75527360E-02   0.75527333E-02   0.75527333E-02   0.75527333E-02   0.16478759E-01   0.23476561E-01
  2145.8000       0.13235241E-01   0.13235237E-01   0.13235237E-01   0.13235237E-01   0.78035845E-02  -0.72893024E-01
  2146.0000       0.10674170E-01   0.10674166E-01   0.10674166E-01   0.10674166E-01  -0.12678451E-01   0.33108255E-01
  2146.2000       0.81638612E-02   0.81638583E-02   0.81638583E-02   0.81638583E-02   0.21046886E-01   0.13940879
  2146.4000       0.19092924E-01   0.19092918E-01   0.19092918E-01   0.19092918E-01   0.43085066E-01   0.36143790E-01
  2146.6000       0.25397888E-01   0.25397879E-01   0.25397879E-01   0.25397879E-01   0.35504402E-01   0.64405718E-01
  2146.8000       0.33294685E-01   0.33294673E-01   0.33294673E-01   0.33294673E-01   0.68847353E-01   0.14938269
  2147.0000       0.52936829E-01   0.52936810E-01   0.52936810E-01   0.52936810E-01   0.95257480E-01   0.98284286E-01
  2147.2000       0.71397677E-01   0.71397652E-01   0.71397652E-01   0.71397652E-01   0.10816107       0.14432024
  2147.4000       0.96201256E-01   0.96201222E-01   0.96201222E-01   0.96201222E-01   0.15298557       0.24603630
  2147.6000       0.13259191       0.13259186       0.13259186       0.13259186       0.20657559       0.14807898
  2147.8000       0.17883149       0.17883143       0.17883143       0.17883143       0.21221717      -0.16377482
  2148.0000       0.21747877       0.21747870       0.21747870       0.21747870       0.14106566      -0.22082792
  2148.2000       0.23525776       0.23525767       0.23525767       0.23525767       0.12388600      -0.49862580E-01
  2148.4000       0.26703317       0.26703308       0.26703308       0.26703308       0.12112063      -0.88253581E-01
  2148.6000       0.28370601       0.28370591       0.28370591       0.28370591       0.88584567E-01  -0.38224746E-01
  2148.8000       0.30246700       0.30246689       0.30246689       0.30246689       0.10583073      -0.56526626E-01
  2149.0000       0.32603830       0.32603818       0.32603818       0.32603818       0.65973917E-01  -0.26978995
  2149.2000       0.32885657       0.32885645       0.32885645       0.32885645      -0.20852500E-02  -0.11880290
  2149.4000       0.32520420       0.32520408       0.32520408       0.32520408       0.18452758E-01   0.10856437
  2149.6000       0.33623767       0.33623755       0.33623755       0.33623755       0.41340499E-01  -0.29510224E-02
  2149.8000       0.34174040       0.34174028       0.34174028       0.34174028       0.17272349E-01   0.39665620E-01
  2150.0000       0.34314661       0.34314649       0.34314649       0.34314649       0.57206748E-01   0.27970982
  2150.2000       0.36462310       0.36462297       0.36462297       0.36462297       0.12915628       0.44808435
  2150.4000       0.39480912       0.39480898       0.39480898       0.39480898       0.23644049       0.61328619
  2150.6000       0.45919929       0.45919913       0.45919913       0.45919913       0.37447075       0.80533817
  2150.8000       0.54459742       0.54459723       0.54459723       0.54459723       0.55857576       0.93418563
  2151.0000       0.68262960       0.68262935       0.68262935       0.68262935       0.74814500        1.0597357
  2151.2000       0.84385542       0.84385512       0.84385512       0.84385512       0.98247004        1.7926699
  2151.4000        1.0756176        1.0756172        1.0756172        1.0756172        1.4652130        3.4709011
  2151.6000        1.4299406        1.4299401        1.4299401        1.4299401        2.3708305        5.1348344
  2151.8000        2.0239498        2.0239491        2.0239491        2.0239491        3.5191467        5.4498318
  2152.0000        2.8375993        2.8375983        2.8375983        2.8375983        4.5507632        4.1021844
  2152.2000        3.8442551        3.8442537        3.8442537        3.8442537        5.1600205        1.0552745
  2152.4000        4.9016075        4.9016058        4.9016058        4.9016058        4.9728730       -3.3920132
  2152.6000        5.8334043        5.8334022        5.8334022        5.8334022        3.8032152       -7.5091744
  2152.8000        6.4228936        6.4228913        6.4228913        6.4228913        1.9692033       -8.8279905
  2153.0000        6.6210856        6.6210832        6.6210832        6.6210832       0.27201901       -7.8941928
  2153.2000        6.5317012        6.5316989        6.5316989        6.5316989       -1.1884738       -6.9598409
  2153.4000        6.1456961        6.1456939        6.1456939        6.1456939       -2.5119173       -5.1502961
  2153.6000        5.5269342        5.5269323        5.5269323        5.5269323       -3.2485923       -2.6967911
  2153.8000        4.8462591        4.8462574        4.8462574        4.8462574       -3.5906338      -0.88392127
  2154.0000        4.0906807       0.75055067        4.0906796       0.75055102       -3.6021608       0.93795407
  2154.2000        3.4053948       0.95455737        3.4061290       0.95529274       -3.2154522        2.5175131
  2154.4000        2.8044999       0.97926006        2.8059692       0.98073044       -2.5951556        3.2902376
  2154.6000        2.3673326        1.0032734        2.3695372        1.0054788       -1.8993571        3.0789832
  2154.8000        2.0447570        1.0266049        2.0476967        1.0295453       -1.3635623        2.1460999
  2155.0000        1.8219077        1.0492618        1.8255825        1.0529373       -1.0409172        1.4198436
  2155.2000        1.6283901        1.0712518        1.6328000        1.0756622      -0.79562487        1.1374875
  2155.4000        1.5036577        1.0925821        1.5088026        1.0977275      -0.58592217        1.1348274
  2155.6000        1.3940213        1.1132601        1.3999012        1.1191406      -0.34169390       0.82440205
  2155.8000        1.3669802        1.1332934        1.3735952        1.1399089      -0.25616135       0.33802368
  2156.0000        1.2915567        1.1526893        1.2989067        1.1600398      -0.20648442       0.26862617
  2156.2000        1.2843864        1.1714553        1.2924714        1.1795408      -0.14871089       0.14514043
  2156.4000        1.2320724        1.1895988        1.2408924        1.1984193      -0.14842825       0.30266683
  2156.6000        1.2250151        1.2071271        1.2345702        1.2166826      -0.27644152E-01   0.16248634
  2156.8000        1.2210147        1.2240478        1.2313048        1.2343383      -0.83433716E-01  -0.34996632E-01
  2157.0000        1.1916416        1.2403682        1.2026667        1.2513938      -0.41642805E-01   0.74302034E-01
  2157.2000        1.2043576        1.2560959        1.2161177        1.2678564      -0.53712902E-01   0.42076315E-01
  2157.4000        1.1701565        1.2712381        1.1826516        1.2837336      -0.24812279E-01   0.17819742
  2157.6000        1.1944327        1.2858023        1.2076628        1.2990329       0.17566065E-01  -0.10131844
  2157.8000        1.1771829        1.2997959        1.1911481        1.3137615      -0.65339653E-01  -0.71960612E-01
  2158.0000        1.1682968        1.3132265        1.1829970        1.3279271      -0.11218179E-01   0.16570060
  2158.2000        1.1726956        1.3261013        1.1881308        1.3415369       0.94058706E-03   0.48837343E-01
  2158.4000        1.1686730        1.3384278        1.1848433        1.3545985       0.83167576E-02   0.30590880E-01
  2158.6000        1.1760223        1.3502135        1.1929275        1.3671191       0.13176939E-01   0.84235757E-02
  2158.8000        1.1739438        1.3614657        1.1915841        1.3791064       0.11686188E-01   0.61791361E-02
  2159.0000        1.1806968        1.3721919        1.1990720        1.3905676       0.15648594E-01  -0.57801246E-01
  2159.2000        1.1802033        1.3823995        1.1993135        1.4015102      -0.11434311E-01  -0.39707184E-01
  2159.4000        1.1761231        1.3920959        1.1959683        1.4119416      -0.23428008E-03   0.26060437
  2159.6000        1.1801095        1.4012886        1.2006898        1.4218693       0.92807439E-01   0.77072947E-01
  2159.8000        1.2132460        1.4099849        1.2345613        1.4313006       0.30594899E-01  -0.21759980
  2160.0000        1.1923475        1.4181923        1.2143978        1.4402431       0.57675176E-02   0.47932837E-01
  2160.2000        1.2155530        1.4259183        1.2383384        1.4487040       0.49768034E-01   0.70083516E-01
  2160.7000        1.2271851        1.4431754        1.2518080        1.4677987       0.54825979E-01  -0.16038678E-01
  2161.2000        1.2703790        1.4575856        1.2968394        1.4840464       0.33729355E-01  -0.55719737E-01
  2161.7000        1.2609145        1.4692649        1.2892124        1.4975632      -0.89375739E-03   0.25454716E-01
  2162.2000        1.2694853        1.4783292        1.2996207        1.5084651       0.59184071E-01   0.52374690E-01
  2162.7000        1.3200986        1.4848947        1.3520715        1.5168681       0.51480933E-01  -0.25230826E-01
  2163.2000        1.3209662        1.4890771        1.3547767        1.5228881       0.33953245E-01   0.20753030E-01
  2163.7000        1.3540518        1.4909926        1.3896998        1.5266411       0.72233963E-01   0.59789654E-01
  2164.2000        1.3932002        1.4907571        1.4306857        1.5282431       0.93742899E-01  -0.71622561E-02
  2164.7000        1.4477947        1.4884866        1.4871177        1.5278101       0.65071707E-01  -0.69175290E-01
  2165.2000        1.4582719        1.4842971        1.4994324        1.5254581       0.24567609E-01  -0.34170900E-01
  2165.7000        1.4723623        1.4783045        1.5153604        1.5213031       0.30900807E-01   0.34612029E-01
  2166.2000        1.4891727        1.4706248        1.5340083        1.5154610       0.59179638E-01   0.19090483E-01
  2166.7000        1.5315419        1.4613741        1.5782151        1.5080478       0.49991290E-01  -0.21843662E-01
  2167.2000        1.5391640        1.4506683        1.5876746        1.4991795       0.37335976E-01  -0.12865904E-01
  2167.7000        1.5688779        1.4386234        1.6192261        1.4889721       0.37125387E-01  -0.13134128E-01
  2168.2000        1.5762894        1.4253554        1.6284751        1.4775416       0.24201848E-01  -0.40036369E-01
  2168.7000        1.5930798        1.4109802        1.6471030        1.4650040      -0.29109821E-02  -0.41787586E-01
  2169.2000        1.5733784        1.3956139        1.6292391        1.4514752      -0.17585738E-01   0.24007191E-02
  2169.7000        1.5754940        1.3793724        1.6331923        1.4370712      -0.51026302E-03  -0.22914343E-01
  2170.2000        1.5728681        1.3623717        1.6324039        1.4219081      -0.40500080E-01  -0.51875926E-01
  2170.7000        1.5349940        1.3447278        1.5963673        1.4061017      -0.52386189E-01  -0.60184232E-02
  2171.2000        1.5204819        1.3265566        1.5836928        1.3897681      -0.46518503E-01  -0.28551488E-01
  2171.7000        1.4884755        1.3079743        1.5535239        1.3730233      -0.80937677E-01  -0.36740090E-01
  2172.2000        1.4395442        1.2890967        1.5064302        1.3559832      -0.83258594E-01   0.20402787E-01
  2172.7000        1.4052169        1.2700398        1.4739404        1.3387638      -0.60534890E-01  -0.26698302E-01
  2173.2000        1.3790094        1.2509196        1.4495704        1.3214812      -0.10995690      -0.30335956E-01
  2173.7000        1.2952600        1.2318521        1.3676586        1.3042513      -0.90870846E-01   0.56577611E-01
  2174.2000        1.2881385        1.2129533        1.3623747        1.2871900      -0.53379284E-01   0.14652588E-02
  2174.7000        1.2418807        1.1943392        1.3179544        1.2704134      -0.89405587E-01  -0.19239004E-01
  2175.2000        1.1987329        1.1761257        1.2766442        1.2540374      -0.72618288E-01   0.12559995E-01
  2175.7000        1.1692624        1.1584184        1.2490112        1.2381677      -0.76845593E-01  -0.59120201E-02
  2176.2000        1.1218873        1.1412457        1.2034737        1.2228325      -0.78530308E-01   0.37287623E-01
  2176.7000        1.0907321        1.1246013        1.1741560        1.2080256      -0.39557970E-01   0.12540044E-01
  2177.2000        1.0823294        1.1084789        1.1675908        1.1937407      -0.65990264E-01  -0.54704474E-01
  2177.7000        1.0247418        1.0928720        1.1118408        1.1799714      -0.94262444E-01   0.18217091E-01
  2178.2000       0.98806692        1.0777743        1.0770035        1.1667112      -0.47773173E-01   0.77044683E-01
  2178.7000       0.97696865        1.0631795        1.0677427        1.1539539      -0.17217760E-01   0.25148807E-01
  2179.2000       0.97084915        1.0490811        1.0634608        1.1416930      -0.22624366E-01  -0.18944178E-01
  2179.7000       0.95434428        1.0354727        1.0487934        1.1299222      -0.36161939E-01  -0.11571333E-01
  2180.2000       0.93468722        1.0223480        1.0309739        1.1186350      -0.34195699E-01   0.17897882E-01
  2180.7000       0.92014858        1.0097006        1.0182728        1.1078252      -0.18264057E-01   0.28236712E-01
  2181.2000       0.91642316       0.99752412        1.0163849        1.0974862      -0.59589865E-02   0.20025943E-01
  2181.7000       0.91418960       0.98581215        1.0159889        1.0876118       0.17618857E-02  -0.10454101E-01
  2182.2000       0.91818504       0.97455833        1.0218219        1.0781955      -0.16413087E-01  -0.28478336E-01
  2182.7000       0.89777651       0.96375627        1.0032509        1.0692310      -0.26716450E-01   0.25237476E-01
  2183.2000       0.89146859       0.95339960       0.99878049        1.0607118       0.88243889E-02   0.20706479E-01
  2183.7000       0.90660090       0.94348193        1.0157503        1.0526317      -0.60099713E-02  -0.24483788E-01
  2184.2000       0.88545862       0.93399687       0.99644559        1.0449842      -0.15659399E-01   0.19753285E-01
  2184.7000       0.89094150       0.92493806        1.0037660        1.0377629       0.13743314E-01   0.20970270E-02
  2185.2000       0.89920194       0.91629910        1.0138640        1.0309614      -0.13562372E-01  -0.32038405E-01
  2185.7000       0.87737913       0.90807362       0.99387869        1.0245735      -0.18295091E-01  -0.23031829E-02
  2186.2000       0.88090685       0.90025523       0.99924394        1.0185926      -0.15865555E-01   0.19881855E-01
  2186.7000       0.86151357       0.89283756       0.98168820        1.0130125       0.15867640E-02   0.10748926E-01
  2187.2000       0.88249361       0.88581422        1.0045058        1.0078267      -0.51166289E-02  -0.27070712E-01
  2187.7000       0.85639694       0.87917882       0.98024664        1.0030288      -0.25483948E-01  -0.38371604E-02
  2188.2000       0.85700966       0.87292500       0.98269689       0.99861254      -0.89537893E-02   0.24047092E-01
  2188.7000       0.84744315       0.86704637       0.97496792       0.99457143      -0.14368563E-02   0.38903619E-02
  2189.2000       0.85557280       0.86153654       0.98493510       0.99089913      -0.50634274E-02   0.75346668E-02
  2189.7000       0.84237973       0.85638913       0.97357956       0.98758926       0.60978104E-02  -0.17068824E-03
  2190.2000       0.86167062       0.85159777       0.99470797       0.98463543      -0.52341156E-02  -0.25374913E-01
  2190.7000       0.83714561       0.84715607       0.97202051       0.98203126      -0.19277103E-01   0.84900776E-02
  2191.2000       0.84239351       0.84305765       0.97910594       0.97977038       0.32559620E-02  -0.47039020E-02
  2191.7000       0.84040157       0.83929613       0.97895153       0.97784639      -0.23981005E-01  -0.63487160E-02
  2192.2000       0.81841251       0.83586513       0.95880000       0.97625292      -0.30927540E-02   0.39455585E-01
  2192.7000       0.83730882       0.83275827       0.97953384       0.97498359       0.15474580E-01  -0.62955145E-03
  2193.2000       0.83388709       0.82996916       0.97794964       0.97403201      -0.37223054E-02  -0.23078381E-01
  2193.7000       0.83358651       0.82749142       0.97948660       0.97339180      -0.76038005E-02  -0.11609017E-01
  2194.2000       0.82628329       0.82531868       0.97402091       0.97305659      -0.15331323E-01   0.14991748E-01
  2194.7000       0.81825519       0.82344454       0.96783035       0.97301999       0.73879476E-02   0.23767784E-01
  2195.2000       0.83367123       0.82186264       0.98508392       0.97327562       0.84364611E-02  -0.12480192E-01
  2195.7000       0.82669165       0.82056658       0.97994187       0.97381709      -0.50922449E-02  -0.65282712E-02
  2196.2000       0.82857899       0.81954999       0.98366674       0.97463804       0.19081899E-02   0.10564937E-01
  2196.7000       0.82859984       0.81880649       0.98552512       0.97573207       0.54726925E-02  -0.10600405E-01
  2197.2000       0.83405168       0.81832969       0.99281449       0.97709280      -0.86922151E-02  -0.95474580E-02
  2197.7000       0.81990763       0.81811321       0.98050797       0.97871385      -0.40747656E-02   0.27279085E-01
  2198.2000       0.82997692       0.81815068       0.99241479       0.98058885       0.18586870E-01   0.23940689E-03
  2198.7000       0.83849450       0.81843570        1.0027699       0.98271141      -0.38353587E-02  -0.26108651E-01
  2199.2000       0.82614156       0.81896191       0.99225450       0.98507514      -0.75217814E-02   0.11493747E-01
  2199.7000       0.83097271       0.81972291       0.99892318       0.98767367       0.76583887E-02   0.87191398E-03
  2200.2000       0.83379995       0.82071232        1.0035879       0.99050062      -0.66498674E-02  -0.47231137E-02
  2201.2000       0.82099791       0.82335087       0.99446098       0.99681423       0.57371817E-03   0.63106621E-02
  2202.2000       0.83494738       0.82682651        1.0120855        1.0039649       0.59714568E-02   0.34281736E-02
  2203.2000       0.83294083       0.83108819        1.0137540        1.0119017       0.74300654E-02   0.36454132E-02
  2204.2000       0.84980751       0.83608484        1.0342958        1.0205734       0.13262283E-01  -0.32696774E-04
  2205.2000       0.85946539       0.84176543        1.0476287        1.0299291       0.73646719E-02  -0.58244592E-02
  2206.2000       0.86453686       0.84807891        1.0563752        1.0399176       0.16133647E-02  -0.48424477E-02
  2207.2000       0.86269212       0.85497421        1.0582056        1.0504880      -0.23202234E-02   0.44290274E-02
  2208.2000       0.85989641       0.86240029        1.0590849        1.0615891       0.10471420E-01   0.97508431E-02
  2209.2000       0.88363496       0.87030611        1.0864985        1.0731700       0.17181463E-01  -0.41580321E-02
  2210.2000       0.89425934       0.87864060        1.1007980        1.0851795       0.21553553E-02  -0.50702167E-02
  2211.2000       0.88794567       0.88735271        1.0981594        1.0975667       0.70410292E-02   0.25159891E-02
  2212.2000       0.90834139       0.89639140        1.1222301        1.1102805       0.71873335E-02   0.97868649E-03
  2213.2000       0.90232034       0.90570562        1.1198841        1.1232697       0.89984022E-02   0.41480568E-02
  2214.2000       0.92633820       0.91524431        1.1475771        1.1364835       0.15483447E-01  -0.17495545E-02
  2215.2000       0.93328723       0.92495642        1.1582012        1.1498707       0.54992932E-02  -0.55335134E-02
  2216.2000       0.93733679       0.93479090        1.1659258        1.1633802       0.44164204E-02   0.55684269E-02
  2217.2000       0.94212007       0.94469671        1.1743841        1.1769611       0.16636147E-01   0.34137649E-02
  2218.2000       0.97060908       0.95462278        1.2065482        1.1905622       0.11243950E-01  -0.96981957E-02
  2219.2000       0.96460797       0.96451807        1.2042221        1.2041326      -0.27602444E-02  -0.11006067E-02
  2220.2000       0.96508859       0.97433153        1.2083778        1.2176211       0.90427368E-02   0.10828174E-01
  2221.2000       0.98269345       0.98401210        1.2296577        1.2309767       0.18896104E-01   0.23774434E-02
  2222.2000        1.0028808       0.99350874        1.2535201        1.2441484       0.13797624E-01  -0.64556732E-02
  2223.2000        1.0102887        1.0027704        1.2646031        1.2570852       0.59847572E-02  -0.13683877E-01
  2224.2000        1.0148503        1.0117460        1.2728398        1.2697358      -0.13570130E-01   0.28152477E-03
  2225.2000       0.98314844        1.0203845        1.2448130        1.2820494       0.65478067E-02   0.17244500E-01
  2226.2000        1.0279459        1.0286349        1.2932855        1.2939749       0.20918870E-01  -0.41131433E-02
  2227.2000        1.0249862        1.0364461        1.2940008        1.3054611      -0.16784800E-02  -0.11310313E-01
  2228.2000        1.0245890        1.0437671        1.2972787        1.3164571      -0.17017556E-02   0.64152179E-02
  2229.2000        1.0215827        1.0505467        1.2979474        1.3269119       0.11151956E-01   0.80422981E-02
  2230.2000        1.0468929        1.0567340        1.3269327        1.3367743       0.14382840E-01  -0.59702093E-02
  2231.2000        1.0503483        1.0622780        1.3340632        1.3459932      -0.78846269E-03  -0.84623685E-02
  2232.2000        1.0453160        1.0671274        1.3327059        1.3545178      -0.25418965E-02   0.36753391E-02
  2233.2000        1.0452646        1.0712314        1.3363296        1.3622968       0.65622155E-02   0.54210143E-02
  2234.2000        1.0584404        1.0745389        1.3531805        1.3692793       0.83001321E-02  -0.46196663E-02
  2235.2000        1.0618648        1.0769987        1.3602800        1.3754142      -0.26771170E-02  -0.22339101E-02
  2236.2000        1.0530861        1.0785599        1.3551764        1.3806505       0.38323119E-02   0.74620689E-02
  2237.2000        1.0695294        1.0791714        1.3752947        1.3849370       0.12247021E-01   0.21092190E-02
  2238.2000        1.0775802        1.0787821        1.3870205        1.3882228       0.80507500E-02  -0.41962707E-02
