# XDI/1.0 Athena/0.9.26
# Element.edge:                  K
# Element.symbol:                P
# Column.1:                      energy eV
# Column.2:                      norm
# Column.3:                      nbkg
# Column.4:                      flat
# Column.5:                      fbkg
# Column.6:                      nder
# Column.7:                      nsec
# Athena.e0:                     2154
# Athena.eshift:                 0
# Athena.rbkg:                   1.0
# Athena.importance:             1
# Athena.standard:               None
# Athena.bkg_kweight:            2
# Athena.edge_step:              0.3951588
# Athena.fixed_step:             no
# Athena.pre_edge_range:         -25.4 -7
# Athena.pre_edge_line:          -1.886445 + 0.000923461 * E
# Athena.normalization_range:    34 63.6
# Athena.post_edge_polynomial:   -4.105376 + 0.00213706 * E + 0 * E^2 + 0 * E^3
# Athena.spline_range_energy:    0.000 85.601
# Athena.clamps:                 0 24
# Athena.spline_range_k:         0.000 4.740
# Athena.kweight:                2
# Athena.window:                 hanning
# Athena.phase_correction:       no
# Athena.k_range:                2.740 3.000
# Athena.dk:                     1
# Athena.r_range:                1 3
# Athena.dr:                     0.0
# Athena.window:                 hanning
# Athena.plot_multiplier:        1
# Athena.y_offset:               0
# ///
#------------------------
#   e         norm        nbkg        flat        fbkg        nder        nsec
  2125.4900       0.54755608E-01   0.54755602E-01   0.54755602E-01   0.54755602E-01  -0.59619365E-02   0.58552417E-04
  2127.4900       0.42831735E-01   0.42831730E-01   0.42831730E-01   0.42831730E-01  -0.58448317E-02   0.46943158E-04
  2129.4900       0.31376282E-01   0.31376278E-01   0.31376278E-01   0.31376278E-01  -0.57741639E-02   0.39213670E-03
  2131.4900       0.19735080E-01   0.19735078E-01   0.19735078E-01   0.19735078E-01  -0.42762849E-02   0.47813062E-03
  2133.4900       0.14271142E-01   0.14271141E-01   0.14271141E-01   0.14271141E-01  -0.38616414E-02   0.13353810E-03
  2135.4900       0.42885143E-02   0.42885138E-02   0.42885138E-02   0.42885138E-02  -0.37421325E-02   0.63319488E-03
  2137.4900      -0.69738764E-03  -0.69738755E-03  -0.69738756E-03  -0.69738755E-03  -0.13288619E-02   0.68211509E-03
  2139.4900      -0.10269332E-02  -0.10269331E-02  -0.10269331E-02  -0.10269331E-02  -0.10136721E-02  -0.10172245E-02
  2140.4900      -0.37384039E-02  -0.37384035E-02  -0.37384035E-02  -0.37384035E-02  -0.43805353E-02  -0.46595772E-02
  2140.5900      -0.58455220E-02  -0.58455213E-02  -0.58455213E-02  -0.58455213E-02  -0.61392070E-02   0.42603706E-01
  2140.6900      -0.49662453E-02  -0.49662448E-02  -0.49662448E-02  -0.49662448E-02   0.41402059E-02   0.39015965E-01
  2140.7900      -0.50174808E-02  -0.50174802E-02  -0.50174802E-02  -0.50174802E-02   0.16639859E-02  -0.91665690E-01
  2140.8900      -0.46334482E-02  -0.46334476E-02  -0.46334476E-02  -0.46334476E-02  -0.14192932E-01  -0.66156955E-01
  2140.9900      -0.78560672E-02  -0.78560663E-02  -0.78560663E-02  -0.78560663E-02  -0.11567405E-01   0.12427916
  2141.0900      -0.69469292E-02  -0.69469284E-02  -0.69469284E-02  -0.69469284E-02   0.10662901E-01   0.53807488E-01
  2141.1900      -0.57234871E-02  -0.57234864E-02  -0.57234864E-02  -0.57234864E-02  -0.80590750E-03  -0.10283209
  2141.2900      -0.71081107E-02  -0.71081099E-02  -0.71081099E-02  -0.71081099E-02  -0.99035169E-02   0.41818636E-02
  2141.3900      -0.77041905E-02  -0.77041896E-02  -0.77041896E-02  -0.77041896E-02   0.30465212E-04   0.59836711E-01
  2141.4900      -0.71020177E-02  -0.71020168E-02  -0.71020168E-02  -0.71020168E-02   0.20638252E-02  -0.10578027E-01
  2141.5900      -0.72914254E-02  -0.72914246E-02  -0.72914246E-02  -0.72914246E-02  -0.20851402E-02  -0.34473487E-01
  2141.6900      -0.75190457E-02  -0.75190448E-02  -0.75190448E-02  -0.75190448E-02  -0.48308721E-02   0.37010442E-01
  2141.7900      -0.82575999E-02  -0.82575989E-02  -0.82575989E-02  -0.82575989E-02   0.53169481E-02   0.44539061E-02
  2141.8900      -0.64556561E-02  -0.64556553E-02  -0.64556553E-02  -0.64556553E-02  -0.39400909E-02  -0.56711384E-01
  2141.9900      -0.90456180E-02  -0.90456170E-02  -0.90456170E-02  -0.90456170E-02  -0.60253288E-02   0.11440339
  2142.0900      -0.76607218E-02  -0.76607209E-02  -0.76607209E-02  -0.76607209E-02   0.18940587E-01  -0.70351472E-02
  2142.1900      -0.52575007E-02  -0.52575001E-02  -0.52575001E-02  -0.52575001E-02  -0.74323582E-02  -0.10601435
  2142.2900      -0.91471935E-02  -0.91471924E-02  -0.91471924E-02  -0.91471924E-02  -0.22622842E-02   0.88926285E-01
  2142.3900      -0.57099576E-02  -0.57099569E-02  -0.57099569E-02  -0.57099569E-02   0.10352899E-01  -0.73831086E-01
  2142.4900      -0.70766137E-02  -0.70766129E-02  -0.70766129E-02  -0.70766129E-02  -0.17028501E-01  -0.14763687
  2142.5900      -0.91156578E-02  -0.91156568E-02  -0.91156568E-02  -0.91156568E-02  -0.19174474E-01   0.87300356E-01
  2142.6900      -0.10911509E-01  -0.10911507E-01  -0.10911507E-01  -0.10911507E-01   0.43156983E-03   0.19340961
  2142.7900      -0.90293439E-02  -0.90293428E-02  -0.90293428E-02  -0.90293428E-02   0.19507447E-01   0.80986438E-01
  2142.8900      -0.70100191E-02  -0.70100183E-02  -0.70100183E-02  -0.70100183E-02   0.16628857E-01  -0.12963144
  2142.9900      -0.57035724E-02  -0.57035717E-02  -0.57035717E-02  -0.57035717E-02  -0.64188415E-02  -0.63778164E-01
  2143.0900      -0.82937874E-02  -0.82937864E-02  -0.82937864E-02  -0.82937864E-02   0.38732246E-02   0.68263703E-01
  2143.1900      -0.49289275E-02  -0.49289269E-02  -0.49289269E-02  -0.49289269E-02   0.72338992E-02  -0.59653240E-01
  2143.2900      -0.68470076E-02  -0.68470068E-02  -0.68470068E-02  -0.68470068E-02  -0.80574234E-02  -0.18878489E-01
  2143.3900      -0.65404122E-02  -0.65404114E-02  -0.65404114E-02  -0.65404114E-02   0.34582015E-02   0.15715203E-01
  2143.4900      -0.61553673E-02  -0.61553665E-02  -0.61553665E-02  -0.61553665E-02  -0.49143828E-02   0.39920664E-02
  2143.5900      -0.75232887E-02  -0.75232878E-02  -0.75232879E-02  -0.75232878E-02   0.42566148E-02   0.79816022E-01
  2143.6900      -0.53040443E-02  -0.53040437E-02  -0.53040437E-02  -0.53040437E-02   0.11048822E-01  -0.84333194E-01
  2143.7900      -0.53135244E-02  -0.53135238E-02  -0.53135238E-02  -0.53135238E-02  -0.12610024E-01  -0.10077595
  2143.8900      -0.78260491E-02  -0.78260482E-02  -0.78260482E-02  -0.78260482E-02  -0.91063689E-02   0.16115042
  2143.9900      -0.71347982E-02  -0.71347973E-02  -0.71347974E-02  -0.71347973E-02   0.19620060E-01   0.11335950
  2144.0900      -0.39020371E-02  -0.39020366E-02  -0.39020366E-02  -0.39020366E-02   0.13565532E-01  -0.10192106
  2144.1900      -0.44216918E-02  -0.44216913E-02  -0.44216913E-02  -0.44216913E-02  -0.76415213E-03  -0.23958725E-01
  2144.2900      -0.40548675E-02  -0.40548670E-02  -0.40548670E-02  -0.40548670E-02   0.87737866E-02   0.16493371E-01
  2144.3900      -0.26669345E-02  -0.26669342E-02  -0.26669342E-02  -0.26669342E-02   0.25345221E-02  -0.20580336E-01
  2144.4900      -0.35479631E-02  -0.35479626E-02  -0.35479627E-02  -0.35479626E-02   0.46577194E-02   0.78841730E-01
  2144.5900      -0.17353906E-02  -0.17353904E-02  -0.17353904E-02  -0.17353904E-02   0.18302868E-01   0.24135869E-01
  2144.6900       0.11261058E-03   0.11261057E-03   0.11261056E-03   0.11261057E-03   0.94848932E-02   0.60671818E-02
  2144.7900       0.16158801E-03   0.16158799E-03   0.16158799E-03   0.16158799E-03   0.19516305E-01   0.52194213E-02
  2144.8900       0.40158715E-02   0.40158710E-02   0.40158710E-02   0.40158710E-02   0.10528777E-01  -0.14472032
  2144.9900       0.22673435E-02   0.22673432E-02   0.22673432E-02   0.22673432E-02  -0.94277588E-02  -0.20675235E-01
  2145.0900       0.21303197E-02   0.21303195E-02   0.21303195E-02   0.21303195E-02   0.63937305E-02   0.79569286E-01
  2145.1900       0.35460896E-02   0.35460892E-02   0.35460892E-02   0.35460892E-02   0.64860985E-02  -0.19055633E-01
  2145.2900       0.34275394E-02   0.34275390E-02   0.34275390E-02   0.34275390E-02   0.25826040E-02  -0.42577824E-01
  2145.3900       0.40626104E-02   0.40626100E-02   0.40626099E-02   0.40626100E-02  -0.20294664E-02   0.30449787E-01
  2145.4900       0.30216462E-02   0.30216458E-02   0.30216458E-02   0.30216458E-02   0.86725615E-02   0.11487155
  2145.5900       0.57971227E-02   0.57971221E-02   0.57971220E-02   0.57971221E-02   0.20944844E-01   0.13311106E-01
  2145.6900       0.72106150E-02   0.72106142E-02   0.72106142E-02   0.72106142E-02   0.11334783E-01  -0.72692303E-01
  2145.7900       0.80640792E-02   0.80640783E-02   0.80640783E-02   0.80640783E-02   0.64063837E-02  -0.96980010E-01
  2145.8900       0.84918918E-02   0.84918908E-02   0.84918908E-02   0.84918908E-02  -0.80612194E-02  -0.17423377E-01
  2145.9900       0.64518354E-02   0.64518346E-02   0.64518346E-02   0.64518346E-02   0.29217083E-02   0.10082657
  2146.0900       0.90762334E-02   0.90762324E-02   0.90762324E-02   0.90762324E-02   0.12104094E-01   0.30215704E-01
  2146.1900       0.88726541E-02   0.88726531E-02   0.88726531E-02   0.88726531E-02   0.89648491E-02   0.12020485E-02
  2146.2900       0.10869203E-01   0.10869202E-01   0.10869202E-01   0.10869202E-01   0.12344503E-01   0.37314117E-01
  2146.3900       0.11341555E-01   0.11341553E-01   0.11341553E-01   0.11341553E-01   0.16427672E-01   0.11621911E-01
  2146.4900       0.14154738E-01   0.14154736E-01   0.14154736E-01   0.14154736E-01   0.14668886E-01  -0.54155450E-01
  2146.5900       0.14275332E-01   0.14275330E-01   0.14275330E-01   0.14275330E-01   0.55965826E-02   0.29102228E-02
  2146.6900       0.15274054E-01   0.15274052E-01   0.15274052E-01   0.15274052E-01   0.15250930E-01   0.89331186E-01
  2146.7900       0.17325518E-01   0.17325516E-01   0.17325516E-01   0.17325516E-01   0.23462820E-01  -0.52510541E-02
  2146.8900       0.19966618E-01   0.19966616E-01   0.19966616E-01   0.19966616E-01   0.14200719E-01  -0.28279773E-01
  2146.9900       0.20165662E-01   0.20165660E-01   0.20165660E-01   0.20165660E-01   0.17806865E-01   0.25938942E-01
  2147.0900       0.23527991E-01   0.23527988E-01   0.23527988E-01   0.23527988E-01   0.19388508E-01   0.14993974E-01
  2147.1900       0.24043363E-01   0.24043361E-01   0.24043361E-01   0.24043361E-01   0.20805660E-01   0.69718815E-01
  2147.2900       0.27689123E-01   0.27689120E-01   0.27689120E-01   0.27689120E-01   0.33332271E-01   0.64720824E-01
  2147.3900       0.30709818E-01   0.30709814E-01   0.30709814E-01   0.30709814E-01   0.33749824E-01   0.11198031E-01
  2147.4900       0.34439088E-01   0.34439084E-01   0.34439084E-01   0.34439084E-01   0.35571877E-01  -0.76171917E-01
  2147.5900       0.37824193E-01   0.37824189E-01   0.37824189E-01   0.37824189E-01   0.18515441E-01   0.28849165E-01
  2147.6900       0.38142176E-01   0.38142172E-01   0.38142172E-01   0.38142172E-01   0.41341710E-01   0.91735283E-01
  2147.7900       0.46092535E-01   0.46092530E-01   0.46092530E-01   0.46092530E-01   0.36862498E-01  -0.58204455E-01
  2147.8900       0.45514676E-01   0.45514670E-01   0.45514670E-01   0.45514670E-01   0.29700819E-01   0.47006424E-01
  2147.9900       0.52032699E-01   0.52032693E-01   0.52032693E-01   0.52032693E-01   0.46263782E-01   0.74780072E-01
  2148.0900       0.54767432E-01   0.54767426E-01   0.54767426E-01   0.54767426E-01   0.44656833E-01  -0.17714399E-02
  2148.1900       0.60964065E-01   0.60964058E-01   0.60964058E-01   0.60964058E-01   0.45909494E-01   0.33214499E-01
  2148.2900       0.63949331E-01   0.63949324E-01   0.63949324E-01   0.63949324E-01   0.51299733E-01   0.95594491E-01
  2148.3900       0.71224012E-01   0.71224004E-01   0.71224004E-01   0.71224004E-01   0.65028393E-01  -0.38339022E-01
  2148.4900       0.76955010E-01   0.76955001E-01   0.76955001E-01   0.76955001E-01   0.43631929E-01  -0.50486038E-01
  2148.5900       0.79950398E-01   0.79950389E-01   0.79950388E-01   0.79950389E-01   0.54931185E-01   0.15190097
  2148.6900       0.87941247E-01   0.87941236E-01   0.87941236E-01   0.87941236E-01   0.74012124E-01   0.12899879
  2148.7900       0.94752822E-01   0.94752812E-01   0.94752812E-01   0.94752812E-01   0.80730942E-01   0.51308493E-01
  2148.8900       0.10408744       0.10408742       0.10408742       0.10408742       0.84273822E-01   0.40996181E-01
  2148.9900       0.11160759       0.11160757       0.11160757       0.11160757       0.88930179E-01   0.33973687E-01
  2149.0900       0.12187347       0.12187346       0.12187346       0.12187346       0.91068560E-01   0.13292126
  2149.1900       0.12982130       0.12982128       0.12982128       0.12982128       0.11551443       0.22054427
  2149.2900       0.14497636       0.14497634       0.14497634       0.14497634       0.13517741      -0.44602327E-01
  2149.3900       0.15685678       0.15685676       0.15685676       0.15685676       0.10659397       0.60418755E-01
  2149.4900       0.16629515       0.16629513       0.16629513       0.16629513       0.14726117       0.43653341
  2149.5900       0.18630901       0.18630899       0.18630899       0.18630899       0.19390065       0.18834203
  2149.6900       0.20507528       0.20507526       0.20507526       0.20507526       0.18492957       0.31569590E-01
  2149.7900       0.22329493       0.22329490       0.22329490       0.22329490       0.20021457       0.21118095
  2149.8900       0.24511819       0.24511816       0.24511816       0.24511816       0.22716576       0.33252458
  2149.9900       0.26872808       0.26872805       0.26872805       0.26872805       0.26671948       0.43862118
  2150.0900       0.29846209       0.29846205       0.29846205       0.29846205       0.31489000       0.62095296
  2150.1900       0.33170608       0.33170604       0.33170604       0.33170604       0.39091008       0.81410318
  2150.2900       0.37664410       0.37664406       0.37664406       0.37664406       0.47771063       0.89242614
  2150.3900       0.42724821       0.42724816       0.42724816       0.42724816       0.56939530        1.3305412
  2150.4900       0.49052317       0.49052311       0.49052311       0.49052311       0.74381887        1.8541282
  2150.5900       0.57601198       0.57601191       0.57601191       0.57601191       0.94022095        2.1581832
  2150.6900       0.67856735       0.67856728       0.67856728       0.67856728        1.1754555        2.3913807
  2150.7900       0.81110308       0.81110299       0.81110299       0.81110299        1.4184971        1.9474452
  2150.8900       0.96226677       0.96226666       0.96226666       0.96226666        1.5649445        1.0147188
  2150.9900        1.1240920        1.1240919        1.1240919        1.1240919        1.6214408       0.34397568
  2151.0900        1.2865549        1.2865548        1.2865548        1.2865548        1.6337397      -0.24028317
  2151.1900        1.4508399        1.4508398        1.4508398        1.4508398        1.5733842      -0.57407307
  2151.2900        1.6012318        1.6012316        1.6012316        1.6012316        1.5189251       0.57128938
  2151.3900        1.7546249        1.7546247        1.7546247        1.7546247        1.6876421        2.6925254
  2151.4900        1.9387602        1.9387600        1.9387600        1.9387600        2.0574302        5.1762108
  2151.5900        2.1661110        2.1661107        2.1661107        2.1661107        2.7228842        7.1540867
  2151.6900        2.4833370        2.4833367        2.4833367        2.4833367        3.4882475        6.6986369
  2151.7900        2.8637605        2.8637601        2.8637601        2.8637601        4.0626116        4.8640577
  2151.8900        3.2958594        3.2958590        3.2958590        3.2958590        4.4610591        2.9709578
  2151.9900        3.7559723        3.7559719        3.7559719        3.7559719        4.6568032       -1.1501706
  2152.0900        4.2272200        4.2272195        4.2272195        4.2272195        4.2310249       -5.4826066
  2152.1900        4.6021773        4.6021767        4.6021767        4.6021767        3.5602818       -5.6021788
  2152.2900        4.9392764        4.9392758        4.9392758        4.9392758        3.1105892       -5.3649324
  2152.3900        5.2242951        5.2242945        5.2242945        5.2242945        2.4872954       -6.5960831
  2152.4900        5.4367354        5.4367348        5.4367348        5.4367348        1.7913725       -6.2361012
  2152.5900        5.5825696        5.5825690        5.5825690        5.5825690        1.2400751       -4.0477403
  2152.6900        5.6847505        5.6847498        5.6847498        5.6847498       0.98182448       -2.1080135
  2152.7900        5.7789345        5.7789338        5.7789338        5.7789338       0.81847241       -3.4479813
  2152.8900        5.8484449        5.8484443        5.8484443        5.8484443       0.29222822       -6.2474891
  2152.9900        5.8373802        5.8373795        5.8373795        5.8373795      -0.43102540       -5.3035646
  2153.0900        5.7622399        5.7622392        5.7622392        5.7622392      -0.76848471       -3.1892245
  2153.1900        5.6836832        5.6836826        5.6836826        5.6836826       -1.0688703       -4.4431510
  2153.2900        5.5484658        5.5484652        5.5484652        5.5484652       -1.6571149       -5.1795639
  2153.3900        5.3522602        5.3522596        5.3522596        5.3522596       -2.1047831       -3.4055933
  2153.4900        5.1275092        5.1275086        5.1275086        5.1275086       -2.3382336       -4.0293932
  2153.5900        4.8846135        4.8846130        4.8846130        4.8846130       -2.9106617       -4.6506625
  2153.6900        4.5453768        4.5453763        4.5453763        4.5453763       -3.2683661      -0.79778063
  2153.7900        4.2309403        4.2309398        4.2309398        4.2309398       -3.0702179       0.69529018
  2153.8900        3.9313333        3.9313328        3.9313328        3.9313328       -3.1293080      -0.86863823
  2153.9900        3.6050787        3.6050783        3.6051091        3.6051091       -3.2439455       0.15500099
  2154.0900        3.2825442        1.2721943        3.2822675        1.2719180       -3.0983078        2.6761396
  2154.1900        2.9854171        1.2875874        2.9848334        1.2870040       -2.7087176        4.1894555
  2154.2900        2.7408006        1.3027677        2.7399098        1.3018772       -2.2604167        3.6061456
  2154.3900        2.5333338        1.3177365        2.5321359        1.3165388       -1.9874885        3.0267582
  2154.4900        2.3433030        1.3324948        2.3417979        1.3309901       -1.6550651        2.8629633
  2154.5900        2.2023208        1.3470439        2.2005086        1.3452320       -1.4148958        2.1359137
  2154.6900        2.0603238        1.3613848        2.0582046        1.3592658       -1.2278824        2.4048563
  2154.7900        1.9567443        1.3755188        1.9543180        1.3730926      -0.93392455        2.4034644
  2154.8900        1.8735389        1.3894468        1.8708054        1.3867136      -0.74718947        1.4036764
  2154.9900        1.8073064        1.4031702        1.8042659        1.4001299      -0.65318928        1.4111417
  2155.0900        1.7429010        1.4166900        1.7395534        1.4133425      -0.46496113        1.8730447
  2155.1900        1.7143142        1.4300073        1.7106594        1.4263528      -0.27858034       0.94164686
  2155.2900        1.6871850        1.4431234        1.6832231        1.4391617      -0.27663176       0.34397568
  2155.3900        1.6589878        1.4560393        1.6547188        1.4517705      -0.20978521       0.78481116
  2155.4900        1.6452279        1.4687563        1.6406518        1.4641803      -0.11966953       0.98675531
  2155.5900        1.6350539        1.4812753        1.6301707        1.4763923      -0.12434145E-01   0.66365732
  2155.6900        1.6427411        1.4935976        1.6375507        1.4884075       0.13061937E-01   0.17866237
  2155.7900        1.6376663        1.5057244        1.6321688        1.5002271       0.23298329E-01   0.55224640
  2155.8900        1.6474008        1.5176567        1.6415962        1.5118523       0.12351122       0.82093588
  2155.9900        1.6623685        1.5293957        1.6562569        1.5232842       0.18748551       0.95088365E-01
  2156.0900        1.6848979        1.5409425        1.6784790        1.5345239       0.14252889      -0.25420163
  2156.1900        1.6908743        1.5522984        1.6841484        1.5455726       0.13664518       0.46500298
  2156.2900        1.7122269        1.5634643        1.7051938        1.5564315       0.23552949       0.75355790
  2156.3900        1.7379802        1.5744416        1.7306401        1.5671016       0.28735676       0.15379895
  2156.4900        1.7696982        1.5852312        1.7620510        1.5775841       0.26628928      -0.35454105
  2156.5900        1.7912381        1.5958344        1.7832837        1.5878802       0.21644855      -0.52921768
  2156.6900        1.8129880        1.6062522        1.8047264        1.5979909       0.16044574      -0.33853483
  2156.7900        1.8233272        1.6164859        1.8147586        1.6079175       0.14874158      -0.43210481E-01
  2156.8900        1.8427363        1.6265366        1.8338605        1.6176611       0.15180364      -0.62943057
  2156.9900        1.8536880        1.6364054        1.8445051        1.6272227       0.22855469E-01  -0.76848861
  2157.0900        1.8473074        1.6460935        1.8378174        1.6366037      -0.18940778E-02   0.95974085E-01
  2157.1900        1.8533091        1.6556019        1.8435120        1.6458050       0.42050286E-01  -0.27824260
  2157.2900        1.8557174        1.6649319        1.8456132        1.6548279      -0.57542598E-01  -0.63468162
  2157.3900        1.8418006        1.6740845        1.8313893        1.6636734      -0.84886039E-01  -0.24388932
  2157.4900        1.8387402        1.6830610        1.8280218        1.6723428      -0.10632046      -0.37503914
  2157.5900        1.8205365        1.6918625        1.8095110        1.6808371      -0.15989387      -0.26008534
  2157.6900        1.8067614        1.7004900        1.7954288        1.6891575      -0.15833753      -0.22807289
  2157.7900        1.7888690        1.7089448        1.7772292        1.6973052      -0.20550845      -0.18138280
  2157.8900        1.7656598        1.7172280        1.7537128        1.7052813      -0.19461409      -0.14361317
  2157.9900        1.7499462        1.7253407        1.7376922        1.7130869      -0.23423108       0.18802570
  2158.0900        1.7188135        1.7332841        1.7062524        1.7207232      -0.15700895       0.66315119
  2158.1900        1.7185444        1.7410593        1.7056762        1.7281913      -0.10160084      -0.21611567
  2158.2900        1.6984934        1.7486675        1.6853180        1.7354923      -0.20023209      -0.24123216
  2158.3900        1.6784980        1.7561097        1.6650155        1.7426274      -0.14984727       0.43760893
  2158.4900        1.6685239        1.7633872        1.6547343        1.7495978      -0.11271030       0.20377886
  2158.5900        1.6559559        1.7705011        1.6418592        1.7564045      -0.10909150      -0.17897870
  2158.6900        1.6467056        1.7774525        1.6323018        1.7630488      -0.14850604      -0.45614578E-01
  2158.7900        1.6262547        1.7842425        1.6115438        1.7695317      -0.11821442       0.63784491
  2158.8900        1.6230627        1.7908724        1.6080447        1.7758545      -0.20937057E-01   0.17303172
  2158.9900        1.6220673        1.7973431        1.6067421        1.7820181      -0.83608072E-01  -0.55819338
  2159.0900        1.6063411        1.8036560        1.5907088        1.7880239      -0.13257573       0.19289716
  2159.1900        1.5955522        1.8098121        1.5796128        1.7938729      -0.45028640E-01   0.47069690
  2159.2900        1.5973354        1.8158126        1.5810889        1.7995662      -0.38436353E-01   0.50486038E-01
  2159.3900        1.5878649        1.8216586        1.5713113        1.8051051      -0.34931433E-01   0.92367940E-02
  2159.4900        1.5903491        1.8273512        1.5734883        1.8104906      -0.36588994E-01  -0.58773847E-01
  2159.5900        1.5805471        1.8328916        1.5633792        1.8157239      -0.46686202E-01   0.19568085
  2159.6900        1.5810119        1.8382810        1.5635369        1.8208062       0.25471752E-02   0.11628238
  2159.7900        1.5810565        1.8435204        1.5632744        1.8257385      -0.23429726E-01  -0.30158765
  2159.8900        1.5763259        1.8486110        1.5582367        1.8305220      -0.57770355E-01  -0.13254167
  2159.9900        1.5695025        1.8535540        1.5511061        1.8351579      -0.49938060E-01   0.58368946
  2160.0900        1.5663383        1.8583505        1.5476348        1.8396473       0.58967537E-01   0.57628737
  2160.1900        1.5812960        1.8630017        1.5622854        1.8439913       0.65319415E-01  -0.40243320
  2160.2900        1.5794022        1.8675086        1.5600845        1.8481911      -0.21519102E-01  -0.63708572
  2160.3900        1.5769922        1.8718725        1.5573673        1.8522478      -0.62097729E-01   0.46500298E-01
  2160.4900        1.5669826        1.8760944        1.5470507        1.8561626      -0.12219042E-01   0.13759449
  2160.9900        1.5696607        1.8951149        1.5481932        1.8736476       0.20458964E-01   0.55190477E-01
  2161.4900        1.5874416        1.9107582        1.5644385        1.8877553       0.42971435E-01   0.30954648E-01
  2161.9900        1.6126322        1.9231671        1.5880935        1.8986286       0.51413611E-01  -0.92140183E-02
  2162.4900        1.6388552        1.9324842        1.6127810        1.9064101       0.33757416E-01  -0.30812932E-01
  2162.9900        1.6463896        1.9388521        1.6187797        1.9112425       0.20600679E-01   0.33029763E-01
  2163.4900        1.6594559        1.9424137        1.6303105        1.9132684       0.66787179E-01   0.13976661
  2163.9900        1.7131768        1.9433114        1.6824957        1.9126306       0.16036729       0.14088768
  2164.4900        1.8198232        1.9416881        1.7876066        1.9094717       0.20767486       0.28418958E-02
  2164.9900        1.9208516        1.9376864        1.8870994        1.9039344       0.16320919      -0.12381353
  2165.4900        1.9830324        1.9314489        1.9477446        1.8961614       0.83861330E-01  -0.14399276
  2165.9900        2.0047129        1.9231184        1.9678896        1.8862953       0.19216425E-01  -0.61263985E-01
  2166.4900        2.0022488        1.9128376        1.9638898        1.8744789       0.22597345E-01   0.27968506E-01
  2166.9900        2.0273103        1.9007491        1.9874157        1.8608547       0.47184931E-01   0.17633419E-01
  2167.4900        2.0494337        1.8869955        2.0080036        1.8455656       0.40230764E-01  -0.29886722E-01
  2167.9900        2.0675411        1.8717197        2.0245753        1.8287542       0.17298209E-01  -0.44420122E-01
  2168.4900        2.0667319        1.8550642        2.0222306        1.8105631      -0.41893578E-02  -0.27568667E-01
  2168.9900        2.0633517        1.8371717        2.0173148        1.7911351      -0.10270458E-01  -0.18443220E-01
  2169.4900        2.0564615        1.8181850        2.0088890        1.7706127      -0.22632578E-01  -0.33260050E-01
  2169.9900        2.0407191        1.7982466        1.9916111        1.7491388      -0.43530508E-01  -0.38544002E-01
  2170.4900        2.0129310        1.7774993        1.9622873        1.7268559      -0.61176581E-01  -0.63797144E-02
  2170.9900        1.9795425        1.7560858        1.9273633        1.7039068      -0.49910223E-01  -0.11539666E-02
  2171.4900        1.9630207        1.7341487        1.9093060        1.6804342      -0.62330547E-01  -0.21857038E-01
  2171.9900        1.9172120        1.7118307        1.8619616        1.6565806      -0.71767261E-01  -0.16527535E-01
  2172.4900        1.8912535        1.6892745        1.8344675        1.6324888      -0.78858082E-01  -0.30658564E-01
  2172.9900        1.8383539        1.6666228        1.7800324        1.6083015      -0.10242582      -0.16957741E-01
  2173.4900        1.7888277        1.6440183        1.7289706        1.5841614      -0.95815823E-01   0.73362920E-02
  2173.9900        1.7425381        1.6216035        1.6811454        1.5602110      -0.95089533E-01  -0.28469570E-02
  2174.4900        1.6937381        1.5995213        1.6308099        1.5365932      -0.98662780E-01  -0.54737494E-02
  2174.9900        1.6438753        1.5779141        1.5794115        1.5134505      -0.10056328       0.55243620E-02
  2175.4900        1.5931748        1.5568847        1.5271754        1.4908855      -0.93138418E-01   0.13498372E-01
  2175.9900        1.5507369        1.5364403        1.4832019        1.4689055      -0.87064910E-01   0.52232172E-02
  2176.4900        1.5061099        1.5165742        1.4370394        1.4475039      -0.87915201E-01   0.64910621E-02
  2176.9900        1.4628217        1.4972797        1.3922156        1.4266737      -0.80573848E-01   0.14902871E-01
  2177.4900        1.4255361        1.4785499        1.3533944        1.4064083      -0.73012330E-01   0.14940831E-01
  2177.9900        1.3898094        1.4603781        1.3161321        1.3867009      -0.65633017E-01   0.32488209E-01
  2178.4900        1.3599031        1.4427576        1.2846902        1.3675448      -0.40524122E-01   0.28816267E-01
  2178.9900        1.3492852        1.4256816        1.2725368        1.3489333      -0.36816751E-01   0.17668848E-01
  2179.4900        1.3230863        1.4091433        1.2448023        1.3308595      -0.22855274E-01   0.30147377E-01
  2179.9900        1.3264300        1.3931361        1.2466103        1.3133167      -0.66693737E-02   0.18954407E-02
  2180.4900        1.3164169        1.3776532        1.2350617        1.2962981      -0.20959833E-01  -0.66606142E-02
  2180.9900        1.3054701        1.3626877        1.2225794        1.2797971      -0.13329988E-01   0.62152236E-02
  2181.4900        1.3030870        1.3482330        1.2186606        1.2638068      -0.14744609E-01  -0.24233298E-01
  2181.9900        1.2907255        1.3342824        1.2047636        1.2483206      -0.37563286E-01  -0.14849728E-01
  2182.4900        1.2655237        1.3208289        1.1780262        1.2333316      -0.29594337E-01   0.27394053E-01
  2182.9900        1.2611312        1.3078660        1.1720981        1.2188331      -0.10169233E-01  -0.16611045E-01
  2183.4900        1.2553544        1.2953869        1.1647858        1.2048183      -0.46205383E-01  -0.51700740E-01
  2183.9900        1.2149258        1.2833847        1.1228215        1.1912806      -0.61869973E-01   0.58786500E-02
  2184.4900        1.1934845        1.2718528        1.0998446        1.1782131      -0.40326733E-01   0.38711024E-01
  2184.9900        1.1745991        1.2607845        1.0794236        1.1656092      -0.23158949E-01   0.15042056E-01
  2185.4900        1.1703255        1.2501728        1.0736145        1.1534619      -0.25284677E-01  -0.15183771E-03
  2185.9900        1.1493144        1.2400112        1.0510678        1.1417647      -0.23310787E-01   0.32290819E-01
  2186.4900        1.1470147        1.2302928        1.0472326        1.1305107       0.70061426E-02   0.57065672E-02
  2186.9900        1.1563205        1.2210109        1.0550028        1.1196933      -0.17604219E-01  -0.31685999E-01
  2187.4900        1.1294105        1.2121587        1.0265572        1.1093055      -0.24679857E-01   0.18668446E-01
  2187.9900        1.1316407        1.2037296        1.0272518        1.0993408       0.10642269E-02   0.12152078E-01
  2188.4900        1.1304747        1.1957166        1.0245502        1.0897923      -0.12527779E-01  -0.11058846E-01
  2188.9900        1.1191129        1.1881132        1.0116528        1.0806533      -0.99946195E-02   0.16054307E-01
  2189.4900        1.1204801        1.1809125        1.0114845        1.0719170       0.35265285E-02   0.10884233E-01
  2189.9900        1.1226394        1.1741078        1.0121082        1.0635767       0.88961358E-03  -0.11311909E-02
  2190.4900        1.1213697        1.1676924        1.0093029        1.0556257       0.23953375E-02  -0.50916245E-02
  2190.9900        1.1250348        1.1616594        1.0114324        1.0480571      -0.42020109E-02  -0.78955609E-02
  2191.4900        1.1171677        1.1560021        1.0020297        1.0408643      -0.55002233E-02   0.16702148E-03
  2191.9900        1.1195345        1.1507139        1.0028610        1.0340404      -0.40349895E-02  -0.22244224E-02
  2192.4900        1.1131327        1.1457878       0.99492358        1.0275788      -0.77246458E-02   0.53902387E-02
  2192.9900        1.1118099        1.1412173       0.99206516        1.0214727       0.13552492E-02   0.12772082E-01
  2193.4900        1.1144880        1.1369955       0.99320766        1.0157153       0.50474362E-02  -0.10307250E-01
  2193.9900        1.1168573        1.1331156       0.99404143        1.0102999      -0.89520006E-02  -0.51751353E-02
  2194.4900        1.1055360        1.1295710       0.98118450        1.0052197      -0.12769907E-03   0.29917090E-01
  2194.9900        1.1167296        1.1263549       0.99084257        1.0004680       0.20965089E-01   0.17815625E-01
  2195.4900        1.1265011        1.1234605       0.99907842       0.99603796       0.17687925E-01  -0.18625426E-01
  2195.9900        1.1344176        1.1208810        1.0054593       0.99192293       0.23396637E-02  -0.14606788E-01
  2196.4900        1.1288407        1.1186098       0.99834692       0.98811613       0.30811379E-02  -0.51118695E-03
  2196.9900        1.1374987        1.1166401        1.0054693       0.98461080       0.18284768E-02   0.29228759E-02
  2197.4900        1.1306692        1.1149650       0.99710423       0.98140018       0.60040138E-02   0.40338218E-02
  2197.9900        1.1435027        1.1135780        1.0084021       0.97847753       0.58622986E-02  -0.20685357E-01
  2198.4900        1.1365315        1.1124721       0.99989536       0.97583610      -0.14681343E-01  -0.42970072E-02
  2198.9900        1.1288214        1.1116407       0.99064964       0.97346914       0.15652914E-02   0.12680979E-01
  2199.4900        1.1380968        1.1110771       0.99838949       0.97136988      -0.20003641E-02  -0.64505720E-02
  2199.9900        1.1268210        1.1107744       0.98557811       0.96953159      -0.48852806E-02   0.62633055E-02
  2200.4900        1.1332115        1.1107259       0.99043304       0.96794751       0.42629414E-02   0.48647115E-02
  2201.4900        1.1332154        1.1113645       0.98736577       0.96551497       0.24117866E-02   0.70224940E-03
  2202.4900        1.1380351        1.1129389       0.98911429       0.96401826       0.56674402E-02   0.12716408E-03
  2203.4900        1.1445503        1.1153952       0.99255832       0.96340337       0.26661148E-02  -0.23933419E-02
  2204.4900        1.1433673        1.1186793       0.98830419       0.96361628       0.88075638E-03   0.12020485E-04
  2205.4900        1.1463118        1.1227372       0.98817750       0.96460299       0.26901558E-02  -0.28792226E-02
  2206.4900        1.1487476        1.1275148       0.98754217       0.96630948      -0.48776887E-02  -0.13690700E-02
  2207.4900        1.1365564        1.1329582       0.97227980       0.96868175      -0.47984271E-04   0.50378487E-02
  2208.4900        1.1486517        1.1390134       0.98130387       0.97166578       0.51980086E-02   0.19903393E-02
  2209.4900        1.1469524        1.1456264       0.97653348       0.97520756       0.39326943E-02   0.37839222E-02
  2210.4900        1.1565171        1.1527431       0.98302693       0.97925309       0.12765853E-01   0.27438339E-02
  2211.4900        1.1724842        1.1603095       0.99592286       0.98374834       0.94203622E-02  -0.30905300E-02
  2212.4900        1.1753578        1.1682716       0.99572532       0.98863932       0.65847930E-02   0.62633055E-04
  2213.4900        1.1856537        1.1765755        1.0029501       0.99387201       0.95456283E-02   0.26995479E-02
  2214.4900        1.1944490        1.1851670        1.0086742       0.99939240       0.11983889E-01   0.41818636E-02
  2215.4900        1.2096215        1.1939923        1.0207756        1.0051465       0.17909355E-01   0.37624119E-02
  2216.4900        1.2302677        1.2029972        1.0383506        1.0110802       0.19508713E-01  -0.17309499E-02
  2217.4900        1.2486389        1.2121278        1.0536506        1.0171397       0.14447456E-01  -0.76228857E-02
  2218.4900        1.2591627        1.2213300        1.0611032        1.0232707       0.42629414E-02  -0.58906705E-02
  2219.4900        1.2571648        1.2305499        1.0560342        1.0294195       0.26661148E-02  -0.42388027E-03
  2220.4900        1.2644949        1.2397335        1.0602931        1.0355318       0.34151808E-02   0.37959427E-04
  2221.4900        1.2639952        1.2488266        1.0567222        1.0415538       0.27420336E-02   0.11210684E-02
  2222.4900        1.2699790        1.2577754        1.0596348        1.0474314       0.56573177E-02   0.13994376E-02
  2223.4900        1.2753098        1.2665258        1.0618945        1.0531106       0.55409087E-02  -0.26868948E-02
  2224.4900        1.2810608        1.2750238        1.0645743        1.0585374       0.28352806E-03  -0.53440547E-02
  2225.4900        1.2758769        1.2832153        1.0563193        1.0636578      -0.51472007E-02   0.93633254E-04
  2226.4900        1.2707664        1.2910464        1.0481376        1.0684178       0.47079457E-03   0.54060551E-02
  2227.4900        1.2768185        1.2984631        1.0511185        1.0727633       0.56649095E-02  -0.83194411E-03
  2228.4900        1.2820962        1.3054114        1.0533251        1.0766404      -0.11930937E-02  -0.16132757E-03
  2229.4900        1.2744323        1.3118372        1.0425900        1.0799950       0.53422544E-02   0.60437735E-02
  2230.4900        1.2927807        1.3176865        1.0578673        1.0827732       0.10894453E-01   0.11438441E-02
  2231.4900        1.2962212        1.3229053        1.0582366        1.0849208       0.76299426E-02  -0.18796243E-02
  2232.4900        1.3080406        1.3274396        1.0669848        1.0863840       0.71352047E-02  -0.37136973E-03
  2233.4900        1.3104916        1.3312355        1.0663647        1.0871087       0.68872031E-02   0.12589877E-03
  2234.4900        1.3218150        1.3342388        1.0746169        1.0870409       0.73870022E-02   0.27609157E-02
  2235.4900        1.3252656        1.3363956        1.0749963        1.0861265       0.12409034E-01   0.15057239E-02
  2236.4900        1.3466331        1.3376519        1.0932926        1.0843116       0.10398450E-01  -0.72673324E-02
  2237.4900        1.3460625        1.3379536        1.0896509        1.0815422      -0.21256303E-02  -0.70395758E-02
  2238.4900        1.3423818        1.3372468        1.0828990        1.0777642      -0.36807015E-02  -0.15550712E-02
