# XDI/1.0 Athena/0.9.26
# Element.edge:                  K
# Element.symbol:                P
# Column.1:                      energy eV
# Column.2:                      norm
# Column.3:                      nbkg
# Column.4:                      flat
# Column.5:                      fbkg
# Column.6:                      nder
# Column.7:                      nsec
# Athena.e0:                     2154
# Athena.eshift:                 0
# Athena.rbkg:                   1.0
# Athena.importance:             1
# Athena.standard:               None
# Athena.bkg_kweight:            2
# Athena.edge_step:              1.0605778
# Athena.fixed_step:             no
# Athena.pre_edge_range:         -22.4 -10
# Athena.pre_edge_line:          -2.765506 + 0.0013388 * E
# Athena.normalization_range:    28 56.6
# Athena.post_edge_polynomial:   -1.408034 + 0.00120097 * E + 0 * E^2 + 0 * E^3
# Athena.spline_range_energy:    0.000 85.601
# Athena.clamps:                 0 24
# Athena.spline_range_k:         0.000 4.740
# Athena.kweight:                2
# Athena.window:                 hanning
# Athena.phase_correction:       no
# Athena.k_range:                2.740 3.000
# Athena.dk:                     1
# Athena.r_range:                1 3
# Athena.dr:                     0.0
# Athena.window:                 hanning
# Athena.plot_multiplier:        1
# Athena.y_offset:               0
# ///
#------------------------
#   e         norm        nbkg        flat        fbkg        nder        nsec
  2125.4900       0.15610154E-01   0.15610154E-01   0.15610154E-01   0.15610154E-01  -0.16822006E-02   0.14536887E-03
  2127.4900       0.12245753E-01   0.12245753E-01   0.12245753E-01   0.12245753E-01  -0.13914628E-02   0.86055685E-04
  2129.4900       0.10044303E-01   0.10044303E-01   0.10044303E-01   0.10044303E-01  -0.13379778E-02  -0.74835387E-04
  2131.4900       0.68938416E-02   0.68938416E-02   0.68938416E-02   0.68938416E-02  -0.16908044E-02   0.65824968E-05
  2133.4900       0.32810852E-02   0.32810852E-02   0.32810852E-02   0.32810852E-02  -0.13116478E-02   0.38935144E-03
  2135.4900       0.16472502E-02   0.16472502E-02   0.16472502E-02   0.16472502E-02  -0.13339860E-03   0.14025374E-04
  2137.4900       0.27474908E-02   0.27474908E-02   0.27474908E-02   0.27474908E-02  -0.12555463E-02  -0.51289456E-03
  2139.4900      -0.33749352E-02  -0.33749352E-02  -0.33749352E-02  -0.33749352E-02  -0.21849768E-02   0.19254227E-03
  2140.4900      -0.38074396E-02  -0.38074397E-02  -0.38074397E-02  -0.38074397E-02  -0.67791953E-03  -0.65544603E-04
  2140.5900      -0.41206467E-02  -0.41206467E-02  -0.41206467E-02  -0.41206467E-02  -0.22570759E-02   0.13722151E-01
  2140.6900      -0.42588548E-02  -0.42588549E-02  -0.42588548E-02  -0.42588549E-02   0.20665107E-02   0.32583654E-01
  2140.7900      -0.37073446E-02  -0.37073446E-02  -0.37073446E-02  -0.37073446E-02   0.42596549E-02  -0.19376230E-01
  2140.8900      -0.34069239E-02  -0.34069239E-02  -0.34069239E-02  -0.34069239E-02  -0.18087354E-02  -0.16894093E-01
  2140.9900      -0.40690916E-02  -0.40690917E-02  -0.40690917E-02  -0.40690917E-02   0.88083628E-03   0.23374051E-01
  2141.0900      -0.32307566E-02  -0.32307566E-02  -0.32307566E-02  -0.32307566E-02   0.28660749E-02  -0.27263441E-01
  2141.1900      -0.34958767E-02  -0.34958767E-02  -0.34958767E-02  -0.34958767E-02  -0.45718518E-02  -0.11406518E-01
  2141.2900      -0.41451270E-02  -0.41451270E-02  -0.41451270E-02  -0.41451270E-02   0.58477125E-03   0.62355161E-01
  2141.3900      -0.33789224E-02  -0.33789224E-02  -0.33789224E-02  -0.33789224E-02   0.78991804E-02   0.45326708E-01
  2141.4900      -0.25652909E-02  -0.25652909E-02  -0.25652909E-02  -0.25652909E-02   0.96501128E-02  -0.44685548E-01
  2141.5900      -0.14488999E-02  -0.14488999E-02  -0.14488999E-02  -0.14488999E-02  -0.10379291E-02  -0.75748804E-01
  2141.6900      -0.27728767E-02  -0.27728767E-02  -0.27728767E-02  -0.27728767E-02  -0.54996480E-02   0.30054372E-02
  2141.7900      -0.25488295E-02  -0.25488295E-02  -0.25488295E-02  -0.25488295E-02  -0.43684168E-03   0.49091165E-01
  2141.8900      -0.28602450E-02  -0.28602451E-02  -0.28602451E-02  -0.28602451E-02   0.43185850E-02   0.29797437E-01
  2141.9900      -0.16851125E-02  -0.16851125E-02  -0.16851125E-02  -0.16851125E-02   0.55226457E-02  -0.17862904E-01
  2142.0900      -0.17557159E-02  -0.17557159E-02  -0.17557159E-02  -0.17557159E-02   0.74600412E-03   0.67368938E-02
  2142.1900      -0.15359116E-02  -0.15359116E-02  -0.15359116E-02  -0.15359116E-02   0.68700244E-02   0.18904789E-01
  2142.2900      -0.38171104E-03  -0.38171104E-03  -0.38171104E-03  -0.38171104E-03   0.45269620E-02  -0.37880295E-01
  2142.3900      -0.63051924E-03  -0.63051925E-03  -0.63051924E-03  -0.63051925E-03  -0.70603457E-03  -0.16241147E-01
  2142.4900      -0.52291795E-03  -0.52291796E-03  -0.52291795E-03  -0.52291796E-03   0.12787326E-02   0.97352594E-02
  2142.5900      -0.37477272E-03  -0.37477273E-03  -0.37477272E-03  -0.37477273E-03   0.12410173E-02   0.18598353E-01
  2142.6900      -0.27471449E-03  -0.27471449E-03  -0.27471449E-03  -0.27471449E-03   0.49984031E-02   0.38540312E-01
  2142.7900       0.62490790E-03   0.62490790E-03   0.62490790E-03   0.62490790E-03   0.89490798E-02  -0.62937391E-02
  2142.8900       0.15151015E-02   0.15151015E-02   0.15151015E-02   0.15151015E-02   0.37396553E-02  -0.27980031E-01
  2142.9900       0.13728390E-02   0.13728390E-02   0.13728390E-02   0.13728390E-02   0.33530736E-02   0.90516697E-02
  2143.0900       0.21857162E-02   0.21857162E-02   0.21857162E-02   0.21857162E-02   0.55499892E-02  -0.95702550E-02
  2143.1900       0.24828368E-02   0.24828368E-02   0.24828368E-02   0.24828368E-02   0.14390226E-02  -0.17679042E-02
  2143.2900       0.24735207E-02   0.24735207E-02   0.24735207E-02   0.24735207E-02   0.51964084E-02   0.30290093E-01
  2143.3900       0.35221185E-02   0.35221185E-02   0.35221185E-02   0.35221185E-02   0.74970411E-02  -0.17773331E-01
  2143.4900       0.39729289E-02   0.39729289E-02   0.39729289E-02   0.39729289E-02   0.16417423E-02  -0.16500440E-02
  2143.5900       0.38504669E-02   0.38504670E-02   0.38504670E-02   0.38504670E-02   0.71670323E-02   0.45965510E-01
  2143.6900       0.54063354E-02   0.54063354E-02   0.54063354E-02   0.54063354E-02   0.10834844E-01  -0.21709864E-01
  2143.7900       0.60174358E-02   0.60174358E-02   0.60174358E-02   0.60174358E-02   0.28250595E-02  -0.44904768E-01
  2143.8900       0.59713473E-02   0.59713473E-02   0.59713473E-02   0.59713473E-02   0.18538908E-02  -0.87452330E-02
  2143.9900       0.63882140E-02   0.63882140E-02   0.63882140E-02   0.63882140E-02   0.10760129E-02   0.32600154E-01
  2144.0900       0.61865499E-02   0.61865499E-02   0.61865499E-02   0.61865499E-02   0.83739216E-02   0.70197584E-01
  2144.1900       0.80629983E-02   0.80629983E-02   0.80629983E-02   0.80629983E-02   0.15115530E-01  -0.98295476E-02
  2144.2900       0.92096558E-02   0.92096559E-02   0.92096559E-02   0.92096559E-02   0.64080121E-02  -0.71541192E-01
  2144.3900       0.93446007E-02   0.93446007E-02   0.93446007E-02   0.93446007E-02   0.80729146E-03   0.34650923E-02
  2144.4900       0.93711141E-02   0.93711142E-02   0.93711142E-02   0.93711142E-02   0.71010306E-02   0.65341741E-01
  2144.5900       0.10764807E-01   0.10764807E-01   0.10764807E-01   0.10764807E-01   0.13875640E-01   0.96173991E-02
  2144.6900       0.12146242E-01   0.12146242E-01   0.12146242E-01   0.12146242E-01   0.90245104E-02  -0.25387105E-01
  2144.7900       0.12569709E-01   0.12569709E-01   0.12569709E-01   0.12569709E-01   0.87982186E-02  -0.56572936E-03
  2144.8900       0.13905886E-01   0.13905886E-01   0.13905886E-01   0.13905886E-01   0.89113645E-02  -0.37479570E-02
  2144.9900       0.14351982E-01   0.14351982E-01   0.14351982E-01   0.14351982E-01   0.80486272E-02   0.12045321E-01
  2145.0900       0.15515611E-01   0.15515611E-01   0.15515611E-01   0.15515611E-01   0.11320429E-01   0.22275593E-01
  2145.1900       0.16616068E-01   0.16616068E-01   0.16616068E-01   0.16616068E-01   0.12503746E-01  -0.21945585E-01
  2145.2900       0.18016360E-01   0.18016360E-01   0.18016360E-01   0.18016360E-01   0.69313118E-02  -0.28475044E-01
  2145.3900       0.18002330E-01   0.18002330E-01   0.18002330E-01   0.18002330E-01   0.68087371E-02   0.38941037E-01
  2145.4900       0.19378108E-01   0.19378108E-01   0.19378108E-01   0.19378108E-01   0.14719519E-01   0.28003603E-01
  2145.5900       0.20946234E-01   0.20946234E-01   0.20946234E-01   0.20946234E-01   0.12409458E-01  -0.13176780E-01
  2145.6900       0.21859999E-01   0.21859999E-01   0.21859999E-01   0.21859999E-01   0.12084163E-01   0.26966433E-01
  2145.7900       0.23363066E-01   0.23363067E-01   0.23363067E-01   0.23363067E-01   0.17802744E-01   0.82737918E-02
  2145.8900       0.25420548E-01   0.25420548E-01   0.25420548E-01   0.25420548E-01   0.13738922E-01  -0.24703515E-01
  2145.9900       0.26110851E-01   0.26110851E-01   0.26110851E-01   0.26110851E-01   0.12862041E-01   0.20507689E-01
  2146.0900       0.27992956E-01   0.27992957E-01   0.27992957E-01   0.27992957E-01   0.17840460E-01   0.10418849E-01
  2146.1900       0.29678943E-01   0.29678943E-01   0.29678943E-01   0.29678943E-01   0.14945811E-01   0.39836776E-02
  2146.2900       0.30982119E-01   0.30982119E-01   0.30982119E-01   0.30982119E-01   0.18637195E-01   0.43655449E-01
  2146.3900       0.33406382E-01   0.33406382E-01   0.33406382E-01   0.33406382E-01   0.23676901E-01  -0.58222980E-02
  2146.4900       0.35717499E-01   0.35717499E-01   0.35717499E-01   0.35717499E-01   0.17472735E-01  -0.50208480E-02
  2146.5900       0.36900929E-01   0.36900929E-01   0.36900929E-01   0.36900929E-01   0.22672731E-01   0.25080668E-01
  2146.6900       0.40252045E-01   0.40252045E-01   0.40252045E-01   0.40252045E-01   0.22488869E-01   0.23100615E-02
  2146.7900       0.41398703E-01   0.41398703E-01   0.41398703E-01   0.41398703E-01   0.23134743E-01   0.25127812E-01
  2146.8900       0.44878994E-01   0.44878994E-01   0.44878994E-01   0.44878994E-01   0.27514432E-01  -0.26872144E-02
  2146.9900       0.46901589E-01   0.46901589E-01   0.46901589E-01   0.46901589E-01   0.22597301E-01  -0.40308217E-02
  2147.0900       0.49398454E-01   0.49398454E-01   0.49398454E-01   0.49398454E-01   0.26708267E-01   0.23925637E-01
  2147.1900       0.52243242E-01   0.52243243E-01   0.52243243E-01   0.52243243E-01   0.27382428E-01   0.11432447E-01
  2147.2900       0.54874939E-01   0.54874940E-01   0.54874940E-01   0.54874940E-01   0.28994757E-01   0.27579306E-02
  2147.3900       0.58042194E-01   0.58042194E-01   0.58042194E-01   0.58042194E-01   0.27934014E-01   0.51245651E-01
  2147.4900       0.60461742E-01   0.60461743E-01   0.60461743E-01   0.60461743E-01   0.39243887E-01   0.65836754E-01
  2147.5900       0.65890971E-01   0.65890971E-01   0.65890971E-01   0.65890971E-01   0.41101365E-01  -0.36135963E-01
  2147.6900       0.68682015E-01   0.68682016E-01   0.68682016E-01   0.68682016E-01   0.32016694E-01  -0.11786028E-01
  2147.7900       0.72294310E-01   0.72294310E-01   0.72294310E-01   0.72294310E-01   0.38744159E-01   0.61970937E-01
  2147.8900       0.76430847E-01   0.76430847E-01   0.76430847E-01   0.76430847E-01   0.44410882E-01   0.44763335E-01
  2147.9900       0.81176486E-01   0.81176487E-01   0.81176487E-01   0.81176487E-01   0.47696826E-01   0.24208502E-01
  2148.0900       0.85970212E-01   0.85970213E-01   0.85970213E-01   0.85970213E-01   0.49252582E-01   0.22605602E-01
  2148.1900       0.91027003E-01   0.91027003E-01   0.91027003E-01   0.91027003E-01   0.52217947E-01   0.12398902E-01
  2148.2900       0.96413802E-01   0.96413802E-01   0.96413802E-01   0.96413802E-01   0.51732362E-01  -0.11833172E-01
  2148.3900       0.10137348       0.10137348       0.10137348       0.10137348       0.49851312E-01   0.41321815E-01
  2148.4900       0.10638406       0.10638406       0.10638406       0.10638406       0.59996725E-01   0.15908781
  2148.5900       0.11337282       0.11337282       0.11337282       0.11337282       0.81668874E-01   0.98955493E-01
  2148.6900       0.12271784       0.12271784       0.12271784       0.12271784       0.79787824E-01  -0.45824078E-01
  2148.7900       0.12933039       0.12933039       0.12933039       0.12933039       0.72504059E-01   0.41486820E-02
  2148.8900       0.13721865       0.13721865       0.13721865       0.13721865       0.80617561E-01   0.85967290E-01
  2148.9900       0.14545390       0.14545390       0.14545390       0.14545390       0.89697517E-01   0.10942149
  2149.0900       0.15515815       0.15515815       0.15515815       0.15515815       0.10250186       0.15588201
  2149.1900       0.16595427       0.16595427       0.16595427       0.16595427       0.12087392       0.11590380
  2149.2900       0.17933294       0.17933294       0.17933294       0.17933294       0.12568262       0.10192557
  2149.3900       0.19109079       0.19109079       0.19109079       0.19109079       0.14125903       0.14614675
  2149.4900       0.20758474       0.20758475       0.20758475       0.20758475       0.15491197       0.86273727E-01
  2149.5900       0.22207319       0.22207319       0.22207319       0.22207319       0.15851378       0.15246406
  2149.6900       0.23928750       0.23928750       0.23928750       0.23928750       0.18540478       0.31838777
  2149.7900       0.25915414       0.25915414       0.25915414       0.25915414       0.22219133       0.31779847
  2149.8900       0.28372577       0.28372577       0.28372577       0.28372577       0.24896447       0.32541224
  2149.9900       0.30894704       0.30894704       0.30894704       0.30894704       0.28727378       0.41328887
  2150.0900       0.34118052       0.34118052       0.34118052       0.34118052       0.33162225       0.56410289
  2150.1900       0.37527149       0.37527149       0.37527149       0.37527149       0.40009436       0.73636747
  2150.2900       0.42119939       0.42119940       0.42119940       0.42119940       0.47889574       0.87541904
  2150.3900       0.47105063       0.47105064       0.47105064       0.47105064       0.57517816        1.1838830
  2150.4900       0.53623503       0.53623503       0.53623503       0.53623503       0.71567234        1.4633061
  2150.5900       0.61418510       0.61418511       0.61418511       0.61418511       0.86783939        1.5120531
  2150.6900       0.70980290       0.70980291       0.70980291       0.70980291        1.0180830        1.3672029
  2150.7900       0.81780169       0.81780170       0.81780170       0.81780170        1.1412800        1.1391668
  2150.8900       0.93805890       0.93805890       0.93805890       0.93805890        1.2459163       0.47448193
  2150.9900        1.0669850        1.0669850        1.0669850        1.0669850        1.2361763      -0.92072453E-01
  2151.0900        1.1852942        1.1852942        1.1852942        1.1852942        1.2275018       0.41722540E-01
  2151.1900        1.3124853        1.3124853        1.3124853        1.3124853        1.2445209       0.34203054
  2151.2900        1.4341983        1.4341983        1.4341983        1.4341983        1.2959079        1.1265086
  2151.3900        1.5716669        1.5716669        1.5716669        1.5716669        1.4698226        2.3216118
  2151.4900        1.7281629        1.7281629        1.7281629        1.7281629        1.7602303        3.2079212
  2151.5900        1.9237130        1.9237130        1.9237130        1.9237130        2.1114068        3.3623181
  2151.6900        2.1504442        2.1504442        2.1504442        2.1504442        2.4326939        2.5966977
  2151.7900        2.4102518        2.4102518        2.4102518        2.4102518        2.6307464       0.69914720
  2151.8900        2.6765935        2.6765935        2.6765935        2.6765935        2.5725234       -1.8558280
  2151.9900        2.9247564        2.9247564        2.9247564        2.9247564        2.2595808       -3.6701692
  2152.0900        3.1285096        3.1285096        3.1285096        3.1285096        1.8384895       -4.6736317
  2152.1900        3.2924543        3.2924544        3.2924544        3.2924544        1.3248544       -5.0463059
  2152.2900        3.3934805        3.3934805        3.3934805        3.3934805       0.82922836       -3.7764792
  2152.3900        3.4583000        3.4583000        3.4583000        3.4583000       0.56955859       -3.3807043
  2152.4900        3.5073922        3.5073923        3.5073923        3.5073923       0.15308749       -3.6084104
  2152.5900        3.4889175        3.4889175        3.4889175        3.4889175      -0.15212350       -1.5788563
  2152.6900        3.4769675        3.4769676        3.4769676        3.4769676      -0.16268378      -0.69938292
  2152.7900        3.4563808        3.4563808        3.4563808        3.4563808      -0.29200008       -2.7536876
  2152.8900        3.4185675        3.4185675        3.4185675        3.4185675      -0.71342131       -3.5169508
  2152.9900        3.3136965        3.3136965        3.3136965        3.3136965      -0.99539025       -1.5239335
  2153.0900        3.2194895        3.2194895        3.2194895        3.2194895       -1.0182080      -0.85260129
  2153.1900        3.1100549        3.1100549        3.1100549        3.1100549       -1.1659105      -0.81064302
  2153.2900        2.9863074        2.9863074        2.9863074        2.9863074       -1.1803366      -0.24562083
  2153.3900        2.8739876        2.8739876        2.8739876        2.8739876       -1.2150347      -0.39530339
  2153.4900        2.7433004        2.7433004        2.7433004        2.7433004       -1.2593973       0.53980010E-01
  2153.5900        2.6221081        2.6221081        2.6221081        2.6221081       -1.2042387       0.95160392
  2153.6900        2.5024527        2.5024527        2.5024527        2.5024527       -1.0690765        1.0161914
  2153.7900        2.4082928        2.4082928        2.4082928        2.4082928       -1.0010004       0.10583853
  2153.8900        2.3022526        2.3022526        2.3022526        2.3022526       -1.0479088       0.20578405
  2153.9900        2.1987111        2.1987111        2.1987098        2.1987098      -0.95984359       0.84859404
  2154.0900        2.1102839        1.0789606        2.1102956        1.0789723      -0.87818998       0.77339918
  2154.1900        2.0230731        1.0890024        2.0230978        1.0890271      -0.80516375       0.76349891
  2154.2900        1.9492512        1.0989047        1.9492888        1.0989424      -0.72549020       0.72955515
  2154.3900        1.8779750        1.1086682        1.8780257        1.1087188      -0.65925272       0.35970958
  2154.4900        1.8174006        1.1182936        1.8174643        1.1183572      -0.65354828       0.53107843
  2154.5900        1.7472654        1.1277817        1.7473420        1.1278584      -0.55303703        1.0199629
  2154.6900        1.7067932        1.1371333        1.7068829        1.1372229      -0.44955571       0.24797803
  2154.7900        1.6573542        1.1463490        1.6574569        1.1464517      -0.50344143       0.55394333E-01
  2154.8900        1.6061049        1.1554298        1.6062206        1.1555454      -0.43847684       0.79319970
  2154.9900        1.5696589        1.1643762        1.5697875        1.1645049      -0.34480149       0.57916543
  2155.0900        1.5371446        1.1731891        1.5372863        1.1733308      -0.32264375       0.20672694
  2155.1900        1.5051301        1.1818693        1.5052848        1.1820239      -0.30345610       0.34886644
  2155.2900        1.4764534        1.1904174        1.4766211        1.1905850      -0.25287047       0.74464127
  2155.3900        1.4545560        1.1988342        1.4547367        1.1990148      -0.15452785       0.45659074
  2155.4900        1.4455478        1.2071204        1.4457415        1.2073141      -0.16155232       0.43608305E-01
  2155.5900        1.4222456        1.2152769        1.4224522        1.2154836      -0.14580619       0.32388006
  2155.6900        1.4163866        1.2233044        1.4166062        1.2235240      -0.96776308E-01   0.25905690
  2155.7900        1.4028903        1.2312036        1.4031229        1.2314362      -0.93994806E-01   0.28522188
  2155.8900        1.3975876        1.2389752        1.3978333        1.2392209      -0.39731931E-01   0.90752418E-01
  2155.9900        1.3949439        1.2466201        1.3952025        1.2468787      -0.75844322E-01  -0.25457821
  2156.0900        1.3824188        1.2541390        1.3826904        1.2544106      -0.90647574E-01   0.29465071E-01
  2156.1900        1.3768144        1.2615326        1.3770990        1.2618172      -0.69951308E-01  -0.19329086E-01
  2156.2900        1.3684285        1.2688016        1.3687261        1.2690993      -0.94513391E-01  -0.29559359
  2156.3900        1.3579117        1.2759469        1.3582223        1.2762575      -0.12907003       0.94995388E-01
  2156.4900        1.3426145        1.2829692        1.3429381        1.2832928      -0.75514313E-01   0.22982755
  2156.5900        1.3428088        1.2898692        1.3431454        1.2902058      -0.83104515E-01  -0.33873045
  2156.6900        1.3259936        1.2966477        1.3263432        1.2969973      -0.14326040       0.87923771E-01
  2156.7900        1.3141568        1.3033055        1.3145194        1.3036681      -0.65519761E-01   0.33802329
  2156.8900        1.3128896        1.3098432        1.3132652        1.3102188      -0.75655746E-01  -0.37621002
  2156.9900        1.2990256        1.3162616        1.2994142        1.3166502      -0.14076177      -0.35028076
  2157.0900        1.2847373        1.3225616        1.2851389        1.3229632      -0.14571190      -0.10395277
  2157.1900        1.2698832        1.3287438        1.2702978        1.3291584      -0.16155232       0.12823199
  2157.2900        1.2524268        1.3348090        1.2528544        1.3352365      -0.12006550       0.50090620
  2157.3900        1.2458701        1.3407579        1.2463107        1.3411984      -0.61371079E-01   0.19682667
  2157.4900        1.2401526        1.3465913        1.2406062        1.3470449      -0.80700166E-01  -0.14378954E-01
  2157.5900        1.2297301        1.3523100        1.2301967        1.3527765      -0.64246870E-01   0.16217575
  2157.6900        1.2273032        1.3579146        1.2277828        1.3583942      -0.48265016E-01  -0.66944641E-01
  2157.7900        1.2200771        1.3634061        1.2205697        1.3638986      -0.77635798E-01  -0.82266477E-01
  2157.8900        1.2117761        1.3687850        1.2122816        1.3692905      -0.64718311E-01   0.17419750
  2157.9900        1.2071334        1.3740521        1.2076520        1.3745707      -0.42796299E-01   0.10065268
  2158.0900        1.2032168        1.3792083        1.2037484        1.3797398      -0.44587775E-01   0.20554833
  2158.1900        1.1982159        1.3842542        1.1987604        1.3847988      -0.16866321E-02   0.43466872
  2158.2900        1.2028795        1.3891907        1.2034370        1.3897482       0.42345970E-01   0.27249297
  2158.3900        1.2066851        1.3940184        1.2072556        1.3945889       0.52811963E-01  -0.69537567E-01
  2158.4900        1.2134419        1.3987381        1.2140254        1.3993216       0.28438456E-01  -0.13506788
  2158.5900        1.2123728        1.4033505        1.2129693        1.4039470       0.25798386E-01   0.14426099
  2158.6900        1.2186016        1.4078565        1.2192111        1.4084660       0.57290653E-01   0.15604701
  2158.7900        1.2238309        1.4122567        1.2244534        1.4128792       0.57007789E-01   0.53980009E-01
  2158.8900        1.2300031        1.4165520        1.2306386        1.4171875       0.68086655E-01   0.21898441
  2158.9900        1.2374482        1.4207430        1.2380967        1.4213915       0.10080467       0.19517663
  2159.0900        1.2501641        1.4248305        1.2508256        1.4254920       0.10712198       0.13388928
  2159.1900        1.2588726        1.4288153        1.2595471        1.4294898       0.12758253       0.66944641E-01
  2159.2900        1.2756806        1.4326981        1.2763681        1.4333856       0.12051091      -0.16712588
  2159.3900        1.2829748        1.4364797        1.2836753        1.4371802       0.94157350E-01   0.10513137
  2159.4900        1.2945120        1.4401608        1.2952255        1.4408743       0.14153718       0.43443300
  2159.5900        1.3112822        1.4437422        1.3120087        1.4444687       0.18104395      -0.16194003
  2159.6900        1.3307208        1.4472247        1.3314603        1.4479641       0.10914918      -0.39577483
  2159.7900        1.3331121        1.4506088        1.3338646        1.4513613       0.10188898       0.18032623
  2159.8900        1.3510986        1.4538956        1.3518641        1.4546610       0.14521442       0.34603779
  2159.9900        1.3621550        1.4570856        1.3629334        1.4578640       0.17109654       0.12587478
  2160.0900        1.3853179        1.4601796        1.3861094        1.4609711       0.17038938      -0.26282843
  2160.1900        1.3962328        1.4631784        1.3970373        1.4639829       0.11853086      -0.11220299
  2160.2900        1.4090241        1.4660828        1.4098416        1.4669002       0.14794878       0.30007228
  2160.3900        1.4258226        1.4688934        1.4266531        1.4697238       0.17854531      -0.14143234E-01
  2160.4900        1.4447332        1.4716111        1.4455766        1.4724545       0.14512014      -0.14426099
  2160.9900        1.5128947        1.4838312        1.5138031        1.4847397       0.91988721E-01  -0.15814021
  2161.4900        1.5367219        1.4938400        1.5376953        1.4948134      -0.13020077E-01  -0.18289087
  2161.9900        1.4998746        1.5017314        1.5009130        1.5027698      -0.90902152E-01  -0.88395212E-01
  2162.4900        1.4458197        1.5075992        1.4469231        1.5087026      -0.10141529       0.31303691E-02
  2162.9900        1.3984593        1.5115374        1.3996277        1.5127057      -0.87771783E-01   0.33858902E-01
  2163.4900        1.3580479        1.5136399        1.3592813        1.5148732      -0.67556387E-01   0.52103674E-01
  2163.9900        1.3309029        1.5140006        1.3322012        1.5152989      -0.35668109E-01   0.60759333E-01
  2164.4900        1.3223798        1.5127135        1.3237431        1.5140767      -0.67970540E-02   0.66322338E-01
  2164.9900        1.3241059        1.5098724        1.3255341        1.5113007       0.30654229E-01   0.87292040E-01
  2165.4900        1.3530341        1.5055713        1.3545273        1.5070646       0.80494986E-01   0.10465050
  2165.9900        1.4046009        1.4999042        1.4061591        1.5014624       0.13530473       0.79004105E-01
  2166.4900        1.4883388        1.4929648        1.4899620        1.4945881       0.15949909      -0.29040774E-02
  2166.9900        1.5640999        1.4848473        1.5657881        1.4865355       0.13240065      -0.87226038E-01
  2167.4900        1.6207395        1.4756454        1.6224926        1.4773986       0.72273053E-01  -0.13437958
  2167.9900        1.6363730        1.4654531        1.6381912        1.4672713      -0.19789256E-02  -0.11882202
  2168.4900        1.6187605        1.4543643        1.6206437        1.4562475      -0.46548970E-01  -0.51556802E-01
  2168.9900        1.5898240        1.4424730        1.5917722        1.4444211      -0.53535728E-01   0.17254745E-01
  2169.4900        1.5652248        1.4298730        1.5672379        1.4318861      -0.29294225E-01   0.46634957E-01
  2169.9900        1.5605298        1.4166584        1.5626079        1.4187364      -0.69007710E-02   0.19272513E-01
  2170.4900        1.5583240        1.4029229        1.5604671        1.4050660      -0.10021711E-01  -0.26268700E-01
  2170.9900        1.5505081        1.3887606        1.5527161        1.3909686      -0.33169471E-01  -0.41392531E-01
  2171.4900        1.5251546        1.3742653        1.5274276        1.3765383      -0.51414243E-01  -0.35603234E-01
  2171.9900        1.4990939        1.3595310        1.5014319        1.3618690      -0.68772705E-01  -0.24599798E-01
  2172.4900        1.4563819        1.3446515        1.4587848        1.3470545      -0.76014041E-01  -0.13011775E-02
  2172.9900        1.4230798        1.3297209        1.4255478        1.3321889      -0.70073883E-01   0.12389473E-01
  2173.4900        1.3863080        1.3148331        1.3888409        1.3173660      -0.63624568E-01   0.24137786E-02
  2173.9900        1.3594552        1.3000819        1.3620532        1.3026798      -0.67660104E-01  -0.10371705E-01
  2174.4900        1.3186479        1.2855612        1.3213108        1.2882242      -0.73996273E-01   0.80239280E-02
  2174.9900        1.2854590        1.2713650        1.2881869        1.2740929      -0.59636176E-01   0.23619201E-01
  2175.4900        1.2590117        1.2575607        1.2618046        1.2603535      -0.50377072E-01   0.20403972E-01
  2175.9900        1.2350819        1.2441523        1.2379397        1.2470102      -0.39232204E-01   0.24665800E-01
  2176.4900        1.2197795        1.2311349        1.2227023        1.2340577      -0.25711272E-01   0.19215940E-01
  2176.9900        1.2093706        1.2185032        1.2123584        1.2214910      -0.20016263E-01   0.54310018E-02
  2177.4900        1.1997632        1.2062522        1.2028160        1.2093050      -0.20280270E-01  -0.28286468E-04
  2177.9900        1.1890904        1.1943767        1.1922081        1.1974945      -0.20044550E-01  -0.55912918E-02
  2178.4900        1.1797187        1.1828717        1.1829014        1.1860545      -0.25871562E-01  -0.15029543E-01
  2178.9900        1.1632188        1.1717320        1.1664665        1.1749797      -0.35074093E-01  -0.11861459E-01
  2179.4900        1.1446446        1.1609525        1.1479573        1.1642652      -0.37733021E-01  -0.24609227E-02
  2179.9900        1.1254858        1.1505280        1.1288635        1.1539057      -0.37535016E-01   0.96079702E-02
  2180.4900        1.1071096        1.1404535        1.1105522        1.1438962      -0.28125051E-01   0.61193059E-02
  2180.9900        1.0973607        1.1307239        1.1008684        1.1342315      -0.31415710E-01  -0.76090599E-02
  2181.4900        1.0756939        1.1213339        1.0792665        1.1249066      -0.35734111E-01  -0.47804131E-02
  2181.9900        1.0616266        1.1122786        1.0652642        1.1159162      -0.36196123E-01   0.12681766E-01
  2182.4900        1.0394977        1.1035528        1.0432003        1.1072554      -0.23052344E-01   0.21101705E-01
  2182.9900        1.0385743        1.0951513        1.0423418        1.0989189      -0.15094418E-01  -0.37903867E-02
  2183.4900        1.0244033        1.0870691        1.0282359        1.0909017      -0.26842731E-01  -0.83539368E-02
  2183.9900        1.0117315        1.0793010        1.0156291        1.0831986      -0.23448355E-01   0.13690650E-01
  2184.4900        1.0009550        1.0718420        1.0049175        1.0758045      -0.13152080E-01   0.11984034E-01
  2184.9900       0.99857946        1.0646869        1.0026070        1.0687144      -0.11464321E-01  -0.18951933E-02
  2185.4900       0.98949064        1.0578305       0.99358312        1.0619230      -0.15047274E-01  -0.97305449E-02
  2185.9900       0.98353218        1.0512678       0.98768965        1.0554253      -0.21194866E-01  -0.41109667E-02
  2186.4900       0.96829577        1.0449937       0.97251821        1.0492161      -0.19158240E-01   0.10447135E-01
  2186.9900       0.96437394        1.0390030       0.96866137        1.0432904      -0.10747731E-01   0.96551144E-02
  2187.4900       0.95754804        1.0332906       0.96190044        1.0376430      -0.95031261E-02  -0.15840422E-02
  2187.9900       0.95487082        1.0278515       0.95928820        1.0322689      -0.12331773E-01   0.56572936E-03
  2188.4900       0.94521627        1.0226804       0.94969863        1.0271627      -0.89373967E-02   0.13982944E-01
  2188.9900       0.94593342        1.0177723       0.95048077        1.0223196       0.16511711E-02   0.12238612E-01
  2189.4900       0.94686744        1.0131220       0.95147976        1.0177343       0.33012150E-02   0.34886644E-02
  2189.9900       0.94923464        1.0087244       0.95391194        1.0134017       0.51398355E-02   0.42241125E-02
  2190.4900       0.95200727        1.0045745       0.95674956        1.0093168       0.75253276E-02   0.56761512E-02
  2190.9900       0.95675996        1.0006671       0.96156723        1.0054744       0.10815987E-01   0.53650001E-02
  2191.4900       0.96282326       0.99699704       0.96769551        1.0018693       0.12890328E-01   0.32435150E-02
  2191.9900       0.96965029       0.99355925       0.97458752       0.99849648       0.14059502E-01   0.79202110E-03
  2192.4900       0.97688276       0.99034862       0.98188497       0.99535082       0.13682349E-01  -0.11031722E-02
  2192.9900       0.98333264       0.98736000       0.98839983       0.99242719       0.12956329E-01  -0.14426099E-02
  2193.4900       0.98983909       0.98458831       0.99497126       0.98972047       0.12239739E-01  -0.23194904E-02
  2193.9900       0.99557238       0.98202840        1.0007695       0.98722555       0.10636839E-01  -0.37715290E-04
  2194.4900        1.0004759       0.97967517        1.0057381       0.98493730       0.12202024E-01   0.12257469E-02
  2194.9900        1.0077744       0.97752351        1.0131015       0.98285061       0.11862586E-01   0.15746134E-02
  2195.4900        1.0123385       0.97556828        1.0177306       0.98096037       0.13776637E-01   0.72036205E-02
  2195.9900        1.0215510       0.97380438        1.0270081       0.97926145       0.19066206E-01  -0.67887523E-03
  2196.4900        1.0314047       0.97222669        1.0369268       0.97774874       0.13097762E-01  -0.16104429E-01
  2196.9900        1.0346488       0.97083009        1.0402358       0.97641712       0.29617774E-02  -0.63173112E-02
  2197.4900        1.0343665       0.96960947        1.0400185       0.97526148       0.67804506E-02   0.34698067E-02
  2197.9900        1.0414293       0.96855970        1.0471462       0.97427669       0.64315842E-02  -0.46295519E-02
  2198.4900        1.0407981       0.96767567        1.0465801       0.97345764       0.21508987E-02  -0.33189456E-02
  2198.9900        1.0435802       0.96695226        1.0494271       0.97279921       0.31126386E-02  -0.39601055E-02
  2199.4900        1.0439107       0.96638436        1.0498227       0.97229629      -0.18092068E-02  -0.94193938E-02
  2199.9900        1.0417709       0.96596684        1.0477479       0.97194376      -0.63067552E-02  -0.11452877E-01
  2200.4900        1.0376040       0.96569460        1.0436459       0.97173649      -0.13262083E-01  -0.62450235E-02
  2201.4900        1.0218778       0.96556545        1.0280497       0.97173731      -0.15674290E-01  -0.27712881E-02
  2202.4900        1.0062554       0.96595598        1.0125572       0.97225780      -0.18804660E-01  -0.88630933E-03
  2203.4900       0.98426850       0.96682525       0.99070028       0.97325703      -0.17446909E-01   0.49949188E-02
  2204.4900       0.97136157       0.96813232       0.97792331       0.97469406      -0.88148220E-02   0.61145915E-02
  2205.4900       0.96663886       0.96983626       0.97333056       0.97652796      -0.52177262E-02   0.43514016E-02
  2206.4900       0.96092612       0.97189611       0.96774778       0.97871778      -0.11201874E-03   0.53060699E-02
  2207.4900       0.96641482       0.97427096       0.97336645       0.98122258       0.53944137E-02   0.29700791E-03
  2208.4900       0.97171494       0.97691985       0.97879653       0.98400144       0.48199708E-03  -0.25174956E-02
  2209.4900       0.96737881       0.97980186       0.97459036       0.98701341       0.35942239E-03   0.30902966E-02
  2210.4900       0.97243379       0.98287604       0.97977530       0.99021755       0.66625903E-02   0.70716170E-03
  2211.4900       0.98070399       0.98610146       0.98817547       0.99357293       0.17737458E-02  -0.32788731E-02
  2212.4900       0.97598128       0.98943717       0.98358271       0.99703860       0.10484418E-03   0.19069794E-02
  2213.4900       0.98091368       0.99284225       0.98864508        1.0005736       0.55877045E-02   0.79202110E-03
  2214.4900       0.98715669       0.99627575       0.99501805        1.0041371       0.16888864E-02  -0.12163181E-02
  2215.4900       0.98429145       0.99969674       0.99228277        1.0076881       0.31550683E-02   0.27673594E-02
  2216.4900       0.99346683        1.0030643        1.0015881        1.0111855       0.72236053E-02   0.14591103E-02
  2217.4900       0.99873866        1.0063374        1.0069899        1.0145887       0.60732889E-02   0.45022628E-03
  2218.4900        1.0056134        1.0094752        1.0139946        1.0178564       0.81240578E-02  -0.22817751E-02
  2219.4900        1.0149868        1.0124368        1.0234979        1.0209479       0.15097387E-02  -0.48346288E-02
  2220.4900        1.0086329        1.0151811        1.0172740        1.0238223      -0.15451998E-02   0.86745168E-03
  2221.4900        1.0118964        1.0176673        1.0206675        1.0264384       0.32446421E-02   0.19824100E-02
  2222.4900        1.0151222        1.0198545        1.0240232        1.0287555       0.24196201E-02   0.16028998E-03
  2223.4900        1.0167356        1.0217016        1.0257666        1.0307326       0.35652221E-02   0.46201231E-03
  2224.4900        1.0222526        1.0231678        1.0314136        1.0323287       0.33436447E-02  -0.76373463E-03
  2225.4900        1.0234229        1.0242120        1.0327138        1.0335029       0.20377528E-02  -0.17490466E-02
  2226.4900        1.0263281        1.0247935        1.0357490        1.0342144      -0.15444844E-03  -0.17702614E-02
  2227.4900        1.0231140        1.0248711        1.0326649        1.0344220      -0.15027701E-02  -0.58694421E-03
  2228.4900        1.0233226        1.0244041        1.0330034        1.0340849      -0.13283369E-02  -0.19776955E-02
  2229.4900        1.0204573        1.0233514        1.0302681        1.0331622      -0.54581612E-02  -0.20719838E-02
  2230.4900        1.0124063        1.0216722        1.0223470        1.0316129      -0.54723044E-02   0.12752483E-02
  2231.4900        1.0095127        1.0193254        1.0195834        1.0293961      -0.29076646E-02   0.12493190E-02
  2232.4900        1.0065909        1.0162702        1.0167916        1.0264708      -0.29736664E-02  -0.33118739E-02
  2233.4900        1.0035654        1.0124656        1.0138960        1.0227962      -0.95314125E-02  -0.23006327E-02
  2234.4900       0.98752810        1.0078706       0.99798868        1.0183312      -0.75749318E-02   0.49359886E-02
  2235.4900       0.98841553        1.0024444       0.99900608        1.0130349       0.34056474E-03   0.35664522E-02
  2236.4900       0.98820923       0.99614598       0.99892973        1.0068665      -0.44202753E-03  -0.13459644E-02
  2237.4900       0.98753148       0.98893441       0.99838195       0.99978487      -0.23513641E-02  -0.17914763E-02
  2238.4900       0.98350650       0.98076876       0.99448693       0.99174919      -0.40249801E-02  -0.16736160E-02
