# XDI/1.0 Athena/0.9.26
# Element.edge:                  K
# Element.symbol:                P
# Column.1:                      energy eV
# Column.2:                      norm
# Column.3:                      nbkg
# Column.4:                      flat
# Column.5:                      fbkg
# Column.6:                      nder
# Column.7:                      nsec
# Athena.e0:                     2154
# Athena.eshift:                 0
# Athena.rbkg:                   1.0
# Athena.importance:             1
# Athena.standard:               None
# Athena.bkg_kweight:            2
# Athena.edge_step:              0.2565165
# Athena.fixed_step:             no
# Athena.pre_edge_range:         -17.4 -10
# Athena.pre_edge_line:          0.121139 - 4.12962e-005 * E
# Athena.normalization_range:    28 68.6
# Athena.post_edge_polynomial:   0.856455 - 0.00026358 * E + 0 * E^2 + 0 * E^3
# Athena.spline_range_energy:    0.000 85.601
# Athena.clamps:                 0 24
# Athena.spline_range_k:         0.000 4.740
# Athena.kweight:                2
# Athena.window:                 hanning
# Athena.phase_correction:       no
# Athena.k_range:                2.740 3.000
# Athena.dk:                     1
# Athena.r_range:                1 3
# Athena.dr:                     0.0
# Athena.window:                 hanning
# Athena.plot_multiplier:        1
# Athena.y_offset:               0
# ///
#------------------------
#   e         norm        nbkg        flat        fbkg        nder        nsec
  2106.0000       0.17694032       0.17694033       0.17694033       0.17694033      -0.89622060E-02  -0.18239567E-03
  2108.0000       0.15901591       0.15901591       0.15901591       0.15901591      -0.93269973E-02   0.22829915E-03
  2110.0000       0.13963233       0.13963234       0.13963234       0.13963234      -0.80490094E-02   0.57481680E-03
  2112.0000       0.12681987       0.12681987       0.12681987       0.12681987      -0.70277301E-02   0.47467705E-03
  2114.0000       0.11152141       0.11152141       0.11152141       0.11152141      -0.61503012E-02   0.61940458E-03
  2116.0000       0.10221866       0.10221867       0.10221867       0.10221867      -0.45501118E-02  -0.46390776E-04
  2118.0000       0.93320962E-01   0.93320966E-01   0.93320966E-01   0.93320966E-01  -0.63358643E-02  -0.77745970E-03
  2120.0000       0.76875208E-01   0.76875211E-01   0.76875211E-01   0.76875211E-01  -0.76599506E-02   0.11008063E-03
  2122.0000       0.62681160E-01   0.62681163E-01   0.62681163E-01   0.62681163E-01  -0.58955417E-02   0.53444416E-03
  2124.0000       0.53293041E-01   0.53293043E-01   0.53293043E-01   0.53293043E-01  -0.55221740E-02  -0.48486158E-05
  2126.0000       0.40592464E-01   0.40592466E-01   0.40592466E-01   0.40592466E-01  -0.59149362E-02   0.27617618E-03
  2128.0000       0.29633296E-01   0.29633297E-01   0.29633297E-01   0.29633297E-01  -0.44174692E-02   0.85260107E-03
  2130.0000       0.22922587E-01   0.22922588E-01   0.22922588E-01   0.22922588E-01  -0.25045319E-02   0.47867289E-03
  2132.0000       0.19615168E-01   0.19615169E-01   0.19615169E-01   0.19615169E-01  -0.25027777E-02  -0.24983772E-03
  2134.0000       0.12911477E-01   0.12911477E-01   0.12911477E-01   0.12911477E-01  -0.35038828E-02  -0.12874415E-03
  2136.0000       0.55996370E-02   0.55996373E-02   0.55996373E-02   0.55996373E-02  -0.30177543E-02   0.36734965E-03
  2138.0000       0.84045963E-03   0.84045967E-03   0.84045966E-03   0.84045967E-03  -0.20344842E-02   0.16531809E-03
  2140.0000      -0.25382998E-02  -0.25382999E-02  -0.25382999E-02  -0.25382999E-02  -0.23564819E-02   0.25280581E-02
  2140.2000      -0.43438006E-02  -0.43438008E-02  -0.43438008E-02  -0.43438008E-02   0.35272436E-02   0.19879546E-01
  2140.4000      -0.11274024E-02  -0.11274024E-02  -0.11274024E-02  -0.11274024E-02   0.55953366E-02   0.15593538E-03
  2140.6000      -0.21056660E-02  -0.21056660E-02  -0.21056661E-02  -0.21056660E-02   0.35896177E-02   0.96143909E-02
  2140.8000       0.30844469E-03   0.30844472E-03   0.30844470E-03   0.30844472E-03   0.94410929E-02  -0.29247630E-01
  2141.0000       0.16707712E-02   0.16707713E-02   0.16707713E-02   0.16707713E-02  -0.81094343E-02  -0.57367165E-01
  2141.2000      -0.29353290E-02  -0.29353291E-02  -0.29353292E-02  -0.29353291E-02  -0.13505773E-01   0.38484365E-01
  2141.4000      -0.37315381E-02  -0.37315382E-02  -0.37315382E-02  -0.37315382E-02   0.72843117E-02   0.44258847E-01
  2141.6000      -0.21604366E-04  -0.21604351E-04  -0.21604367E-04  -0.21604351E-04   0.41977657E-02  -0.24995954E-01
  2141.8000      -0.20524318E-02  -0.20524318E-02  -0.20524318E-02  -0.20524318E-02  -0.27140701E-02  -0.10062705E-01
  2142.0000      -0.11072324E-02  -0.11072324E-02  -0.11072325E-02  -0.11072324E-02   0.17268366E-03   0.29747111E-01
  2142.2000      -0.19833583E-02  -0.19833584E-02  -0.19833584E-02  -0.19833584E-02   0.91847742E-02   0.23631520E-01
  2142.4000       0.25666773E-02   0.25666774E-02   0.25666774E-02   0.25666774E-02   0.96252916E-02  -0.33740518E-01
  2142.6000       0.18667583E-02   0.18667584E-02   0.18667584E-02   0.18667584E-02  -0.43114332E-02  -0.48315604E-01
  2142.8000       0.84210398E-03   0.84210403E-03   0.84210402E-03   0.84210403E-03  -0.97009498E-02   0.15152533E-01
  2143.0000      -0.20136216E-02  -0.20136217E-02  -0.20136217E-02  -0.20136217E-02   0.17495802E-02   0.58363690E-01
  2143.2000       0.15419361E-02   0.15419361E-02   0.15419361E-02   0.15419361E-02   0.13644526E-01   0.49996782E-02
  2143.4000       0.34441888E-02   0.34441890E-02   0.34441890E-02   0.34441890E-02   0.37494515E-02  -0.53225132E-01
  2143.6000       0.30417167E-02   0.30417168E-02   0.30417168E-02   0.30417168E-02  -0.76455266E-02  -0.16811783E-01
  2143.8000       0.38597821E-03   0.38597824E-03   0.38597823E-03   0.38597824E-03  -0.29752619E-02   0.31669502E-01
  2144.0000       0.18516119E-02   0.18516120E-02   0.18516120E-02   0.18516120E-02   0.50222740E-02   0.22393783E-01
  2144.2000       0.23948878E-02   0.23948879E-02   0.23948879E-02   0.23948879E-02   0.59822512E-02   0.11955858E-01
  2144.4000       0.42445124E-02   0.42445126E-02   0.42445126E-02   0.42445126E-02   0.98046173E-02   0.83279240E-02
  2144.6000       0.63167348E-02   0.63167350E-02   0.63167350E-02   0.63167350E-02   0.93134208E-02  -0.72022655E-02
  2144.8000       0.79698807E-02   0.79698811E-02   0.79698811E-02   0.79698811E-02   0.69237111E-02  -0.49850593E-02
  2145.0000       0.90862192E-02   0.90862196E-02   0.90862195E-02   0.90862196E-02   0.73193971E-02  -0.20793009E-01
  2145.2000       0.10897640E-01   0.10897640E-01   0.10897640E-01   0.10897640E-01  -0.13934923E-02   0.14589704E-01
  2145.4000       0.85288223E-02   0.85288226E-02   0.85288226E-02   0.85288226E-02   0.13155279E-01   0.16495040E-01
  2145.6000       0.16159751E-01   0.16159752E-01   0.16159752E-01   0.16159752E-01   0.52045235E-02  -0.47345880E-01
  2145.8000       0.10610632E-01   0.10610632E-01   0.10610632E-01   0.10610632E-01  -0.57830733E-02   0.36074676E-01
  2146.0000       0.13846522E-01   0.13846522E-01   0.13846522E-01   0.13846522E-01   0.19634394E-01   0.58967939E-01
  2146.2000       0.18464389E-01   0.18464390E-01   0.18464390E-01   0.18464390E-01   0.17804102E-01  -0.11088468E-01
  2146.4000       0.20968163E-01   0.20968164E-01   0.20968164E-01   0.20968164E-01   0.15199007E-01  -0.19613747E-02
  2146.6000       0.24543992E-01   0.24543993E-01   0.24543993E-01   0.24543993E-01   0.17019553E-01   0.51653595E-03
  2146.8000       0.27775984E-01   0.27775985E-01   0.27775985E-01   0.27775985E-01   0.15405621E-01   0.79307761E-02
  2147.0000       0.30706241E-01   0.30706242E-01   0.30706242E-01   0.30706242E-01   0.20191863E-01   0.22552155E-01
  2147.2000       0.35852729E-01   0.35852730E-01   0.35852730E-01   0.35852730E-01   0.24426483E-01  -0.13032787E-01
  2147.4000       0.40476834E-01   0.40476835E-01   0.40476835E-01   0.40476835E-01   0.14978748E-01   0.98190561E-03
  2147.6000       0.41844228E-01   0.41844230E-01   0.41844230E-01   0.41844230E-01   0.24819245E-01   0.78306363E-01
  2147.8000       0.50404532E-01   0.50404534E-01   0.50404534E-01   0.50404534E-01   0.46301294E-01   0.41836976E-01
  2148.0000       0.60364746E-01   0.60364748E-01   0.60364748E-01   0.60364748E-01   0.41554036E-01  -0.64079696E-02
  2148.2000       0.67026146E-01   0.67026149E-01   0.67026149E-01   0.67026149E-01   0.43738106E-01   0.42848119E-01
  2148.4000       0.77859988E-01   0.77859991E-01   0.77859991E-01   0.77859991E-01   0.58693283E-01   0.56967581E-01
  2148.6000       0.90503460E-01   0.90503463E-01   0.90503463E-01   0.90503463E-01   0.66525138E-01   0.77073499E-01
  2148.8000       0.10447004       0.10447005       0.10447005       0.10447005       0.89522683E-01   0.10025914
  2149.0000       0.12631253       0.12631254       0.12631254       0.12631254       0.10662879       0.10213037
  2149.2000       0.14712156       0.14712157       0.14712157       0.14712157       0.13037483       0.16875132
  2149.4000       0.17846246       0.17846247       0.17846247       0.17846247       0.17412932       0.20527675
  2149.6000       0.21677329       0.21677330       0.21677330       0.21677330       0.21248553       0.38217082
  2149.8000       0.26345668       0.26345669       0.26345669       0.26345669       0.32699765       0.68418842
  2150.0000       0.34757235       0.34757236       0.34757236       0.34757236       0.48616090        1.0341293
  2150.2000       0.45792103       0.45792105       0.45792105       0.45792105       0.74064939        1.7488202
  2150.4000       0.64383211       0.64383213       0.64383213       0.64383213        1.1856890        2.2311673
  2150.6000       0.93219662       0.93219666       0.93219666       0.93219666        1.6331163        1.8245658
  2150.8000        1.2970786        1.2970787        1.2970787        1.2970787        1.9155153        1.4901088
  2151.0000        1.6984027        1.6984028        1.6984028        1.6984028        2.2291598        1.9894431
  2151.2000        2.1887426        2.1887426        2.1887426        2.1887426        2.7112925        2.7975295
  2151.4000        2.7829197        2.7829199        2.7829199        2.7829199        3.3481716        3.0965599
  2151.6000        3.5280112        3.5280113        3.5280113        3.5280113        3.9499165       0.63892086
  2151.8000        4.3628864        4.3628865        4.3628865        4.3628865        3.6037400       -3.4208568
  2152.0000        4.9695072        4.9695074        4.9695074        4.9695074        2.5815738       -5.6017593
  2152.2000        5.3955159        5.3955161        5.3955161        5.3955161        1.3630362       -5.5383862
  2152.4000        5.5147217        5.5147219        5.5147219        5.5147219       0.36621930       -3.9890220
  2152.6000        5.5420036        5.5420038        5.5420038        5.5420038      -0.23257257       -3.5714076
  2152.8000        5.4216926        5.4216929        5.4216929        5.4216929       -1.0623437       -3.8805982
  2153.0000        5.1170661        5.1170663        5.1170663        5.1170663       -1.7848118       -2.6623530
  2153.2000        4.7077679        4.7077681        4.7077681        4.7077681       -2.1272849      -0.75677390
  2153.4000        4.2661521        4.2661523        4.2661523        4.2661523       -2.0875214       0.63222052
  2153.6000        3.8727594        3.8727595        3.8727595        3.8727595       -1.8743967        1.2869542
  2153.8000        3.5163934        3.5163936        3.5163936        3.5163936       -1.5727397        1.5383756
  2154.0000        3.2436635        1.1025876        3.2436636        1.1025876       -1.2590465        1.5023643
  2154.2000        3.0127749        1.3654971        3.0129482        1.3656704      -0.97179399        1.2561570
  2154.4000        2.8549459        1.3822646        2.8552926        1.3826111      -0.75658368       0.82460579
  2154.6000        2.7101414        1.3985067        2.7106614        1.3990266      -0.64195168       0.39824435
  2154.8000        2.5981652        1.4142294        2.5988585        1.4149226      -0.59728594       0.10691320
  2155.0000        2.4712270        1.4294382        2.4720936        1.4303047      -0.59918640      -0.15617903
  2155.2000        2.3584906        1.4441390        2.3595305        1.4451788      -0.65975755      -0.98409845E-01
  2155.4000        2.2073240        1.4583375        2.2085372        1.4595507      -0.63855034       0.18064139
  2155.6000        2.1030705        1.4720395        2.1044570        1.4734259      -0.58750099       0.63689858E-01
  2155.8000        1.9723236        1.4852506        1.9738834        1.4868104      -0.61307439       0.10991008
  2156.0000        1.8578407        1.4979767        1.8595739        1.4997098      -0.54353696       0.26345770
  2156.2000        1.7549088        1.5102235        1.7568152        1.5121299      -0.50769131       0.29033219
  2156.4000        1.6547642        1.5219967        1.6568440        1.5240764      -0.42740408       0.35609306
  2156.6000        1.5839472        1.5333021        1.5862002        1.5355551      -0.36525409       0.25446705
  2156.8000        1.5086626        1.5441454        1.5110889        1.5465717      -0.32561726       0.24060342
  2157.0000        1.4537003        1.5545323        1.4562999        1.5571319      -0.26901272       0.21570249
  2157.2000        1.4010575        1.5644687        1.4038305        1.5672416      -0.23933627       0.26974385
  2157.4000        1.3579658        1.5739602        1.3609120        1.5769064      -0.16111518       0.37124803
  2157.6000        1.3366114        1.5830126        1.3397310        1.5861321      -0.90837053E-01   0.13751552
  2157.8000        1.3216309        1.5916316        1.3249238        1.5949245      -0.10610897       0.47438467E-01
  2158.0000        1.2941678        1.5998231        1.2976340        1.6032892      -0.71861666E-01   0.21346092
  2158.2000        1.2928863        1.6075926        1.2965258        1.6112321      -0.20724607E-01   0.92610998E-01
  2158.4000        1.2858780        1.6149461        1.2896908        1.6187588      -0.34817267E-01   0.90637441E-01
  2158.6000        1.2789594        1.6218891        1.2829455        1.6258752       0.15530370E-01   0.10255188
  2158.8000        1.2920901        1.6284276        1.2962496        1.6325870       0.62034846E-02  -0.77943326E-01
  2159.0000        1.2814408        1.6345671        1.2857735        1.6388998      -0.15646961E-01   0.16534023
  2159.2000        1.2858314        1.6403135        1.2903374        1.6448195       0.72339579E-01   0.14248596
  2159.4000        1.3103766        1.6456725        1.3150560        1.6503518       0.41347421E-01  -0.57062604E-01
  2159.6000        1.3023703        1.6506498        1.3072230        1.6555025       0.49514537E-01   0.17986172
  2159.8000        1.3301824        1.6552513        1.3352084        1.6602772       0.11329211       0.88256642E-01
  2160.0000        1.3476872        1.6594825        1.3528865        1.6646818       0.84817194E-01  -0.10447114
  2160.5000        1.3895544        1.6684789        1.3951870        1.6741115       0.40162312E-01  -0.74578881E-01
  2161.0000        1.3878495        1.6752875        1.3939153        1.6813533       0.10238313E-01   0.89857764E-02
  2161.5000        1.3997928        1.6799979        1.4062919        1.6864970       0.49148089E-01   0.61150060E-01
  2162.0000        1.4369976        1.6827000        1.4439300        1.6896324       0.71388373E-01   0.22661309E-01
  2162.5000        1.4711811        1.6834836        1.4785468        1.6908492       0.71809398E-01   0.98473194E-02
  2163.0000        1.5088070        1.6824383        1.5166059        1.6902372       0.81235692E-01   0.33175253E-02
  2163.5000        1.5524168        1.6796540        1.5606491        1.6878862       0.75126924E-01  -0.23515056E-01
  2164.0000        1.5839339        1.6752204        1.5925994        1.6838859       0.57720636E-01  -0.78747368E-03
  2164.5000        1.6101375        1.6692273        1.6192362        1.6783260       0.74339450E-01   0.32450153E-01
  2165.0000        1.6582733        1.6617645        1.6678054        1.6712965       0.90170790E-01  -0.17566121E-01
  2165.5000        1.7003082        1.6529216        1.7102736        1.6628869       0.56773329E-01  -0.49100153E-01
  2166.0000        1.7150467        1.6427886        1.7254453        1.6531871       0.41070636E-01  -0.84555961E-02
  2166.5000        1.7413789        1.6314550        1.7522108        1.6422869       0.48317733E-01  -0.11617186E-01
  2167.0000        1.7633644        1.6190108        1.7746296        1.6302759       0.29453450E-01  -0.44757353E-01
  2167.5000        1.7708323        1.6055457        1.7825308        1.6172440       0.35603798E-02  -0.31424878E-01
  2168.0000        1.7669248        1.5911493        1.7790565        1.6032810      -0.19714278E-02  -0.88025523E-02
  2168.5000        1.7688609        1.5759116        1.7814259        1.5884765      -0.52421725E-02  -0.10743948E-01
  2169.0000        1.7616826        1.5599223        1.7746809        1.5729205      -0.12715376E-01   0.53797707E-03
  2169.5000        1.7561455        1.5432710        1.7695771        1.5567025      -0.47041954E-02  -0.29955187E-01
  2170.0000        1.7569784        1.5260476        1.7708432        1.5399124      -0.42670563E-01  -0.48016403E-01
  2170.5000        1.7134750        1.5083419        1.7277731        1.5226400      -0.52720598E-01   0.83425429E-02
  2171.0000        1.7042578        1.4902436        1.7189892        1.5049749      -0.34328020E-01  -0.22556053E-01
  2171.5000        1.6791469        1.4718425        1.6943116        1.4870071      -0.75276651E-01  -0.48020301E-01
  2172.0000        1.6289812        1.4532283        1.6445791        1.4688262      -0.82348321E-01   0.66857295E-02
  2172.5000        1.5967986        1.4344909        1.6128298        1.4505220      -0.68590922E-01   0.39061813E-02
  2173.0000        1.5603902        1.4157199        1.5768547        1.4321842      -0.78442139E-01  -0.11999228E-01
  2173.5000        1.5183565        1.3970051        1.5352542        1.4139027      -0.80590149E-01   0.25920359E-01
  2174.0000        1.4798001        1.3784363        1.4971311        1.3957672      -0.52521780E-01   0.38017046E-01
  2174.5000        1.4658347        1.3601033        1.4835990        1.3778675      -0.42573103E-01  -0.38582312E-01
  2175.0000        1.4372270        1.3420958        1.4554245        1.3602933      -0.91104092E-01  -0.55123158E-01
  2175.5000        1.3747306        1.3245016        1.3933614        1.3431323      -0.97696261E-01   0.14568263E-01
  2176.0000        1.3395307        1.3073629        1.3585948        1.3264270      -0.76535829E-01   0.21215009E-01
  2176.5000        1.2981948        1.2906766        1.3176922        1.3101739      -0.76481252E-01   0.83152543E-02
  2177.0000        1.2630495        1.2744373        1.2829801        1.2943679      -0.68220575E-01   0.72276050E-02
  2177.5000        1.2299742        1.2586398        1.2503381        1.2790037      -0.69253647E-01   0.12498221E-01
  2178.0000        1.1937958        1.2432788        1.2145930        1.2640760      -0.55722354E-01   0.14112152E-01
  2178.5000        1.1742519        1.2283491        1.1954823        1.2495795      -0.55141495E-01  -0.53797707E-03
  2179.0000        1.1386543        1.2138455        1.1603181        1.2355092      -0.56260331E-01   0.88610281E-02
  2179.5000        1.1179915        1.1997626        1.1400885        1.2218596      -0.46280467E-01   0.26516812E-01
  2180.0000        1.0923739        1.1860953        1.1149042        1.2086255      -0.29743519E-01   0.22524866E-01
  2180.5000        1.0882480        1.1728382        1.1112116        1.1958017      -0.23755601E-01  -0.82022011E-02
  2181.0000        1.0686183        1.1599862        1.0920151        1.1833830      -0.37945721E-01   0.49080662E-02
  2181.5000        1.0503023        1.1475340        1.0741324        1.1713640      -0.18847535E-01   0.23885402E-01
  2182.0000        1.0497707        1.1354763        1.0740341        1.1597396      -0.14060318E-01  -0.20115664E-02
  2182.5000        1.0362420        1.1238079        1.0609386        1.1485045      -0.20859101E-01  -0.12155163E-01
  2183.0000        1.0289116        1.1125235        1.0540416        1.1376533      -0.26215481E-01   0.92430698E-02
  2183.5000        1.0100265        1.1016178        1.0355897        1.1271810      -0.11616031E-01   0.32758125E-01
  2184.0000        1.0172956        1.0910857        1.0432921        1.1170822       0.65426440E-02  -0.50406112E-02
  2184.5000        1.0165691        1.0809219        1.0429989        1.1073516      -0.16656642E-01  -0.19328191E-01
  2185.0000        1.0006390        1.0711211        1.0275020        1.0979841      -0.12785547E-01   0.97771485E-02
  2185.5000        1.0037836        1.0616781        1.0310799        1.0889744      -0.68794940E-02   0.29627723E-02
  2186.0000       0.99375947        1.0525876        1.0214890        1.0803171      -0.98227743E-02  -0.31693866E-02
  2186.5000       0.99396081        1.0438444        1.0221237        1.0720072      -0.10048881E-01  -0.13878249E-02
  2187.0000       0.98371059        1.0354432        1.0123067        1.0640392      -0.11210599E-01   0.58007962E-02
  2187.5000       0.98275021        1.0273787        1.0117796        1.0564081      -0.42480844E-02   0.10525638E-03
  2188.0000       0.97946250        1.0196458        1.0089252        1.0491084      -0.11105343E-01   0.44480568E-02
  2188.5000       0.97164487        1.0122391        1.0015408        1.0421350       0.19997235E-03   0.12841279E-01
  2189.0000       0.97966247        1.0051535        1.0099917        1.0354827       0.17359359E-02  -0.98941000E-02
  2189.5000       0.97338080       0.99838362        1.0041433        1.0291461      -0.96941277E-02  -0.12880263E-01
  2190.0000       0.96996835       0.99192425        1.0011641        1.0231200      -0.11144327E-01  -0.57462188E-02
  2190.5000       0.96223648       0.98577015       0.99386552        1.0173992      -0.15440346E-01  -0.33136269E-03
  2191.0000       0.95452800       0.97991606       0.98659032        1.0119783      -0.11475689E-01   0.17390694E-01
  2191.5000       0.95076079       0.97435673       0.98325638        1.0068523       0.19503470E-02   0.13305186E-01
  2192.0000       0.95647835       0.96908691       0.98940721        1.0020157       0.18294971E-02  -0.14490295E-01
  2192.5000       0.95259029       0.96410135       0.98595243       0.99746346      -0.12539948E-01  -0.10209869E-01
  2193.0000       0.94393840       0.95939480       0.97773381       0.99319018      -0.83803721E-02   0.62569072E-02
  2193.5000       0.94420991       0.95496200       0.97843860       0.98919065      -0.62830412E-02   0.51965466E-02
  2194.0000       0.93765536       0.95079771       0.97231732       0.98545963      -0.31838254E-02  -0.31498947E-02
  2194.5000       0.94102609       0.94689667       0.97612133       0.98199187      -0.94329359E-02   0.65921683E-02
  2195.0000       0.92822242       0.94325363       0.96375093       0.97878211       0.34083428E-02   0.15975580E-01
  2195.5000       0.94443443       0.93986335       0.98039622       0.97582510       0.65426440E-02  -0.14073168E-01
  2196.0000       0.93476506       0.93672057       0.97116013       0.97311560      -0.10664825E-01  -0.61282605E-02
  2196.5000       0.93376960       0.93382004       0.97059794       0.97064834       0.41438350E-03  -0.45961954E-02
  2197.0000       0.93517945       0.93115651       0.97244106       0.96841808      -0.15261021E-01  -0.14965898E-01
  2197.5000       0.91850858       0.92872472       0.95620347       0.96641957      -0.14551515E-01   0.23850317E-01
  2198.0000       0.92062793       0.92651944       0.95875609       0.96464756       0.85892959E-02   0.12806193E-01
  2198.5000       0.92709788       0.92453539       0.96565931       0.96309679      -0.17453215E-02  -0.13293491E-01
  2199.0000       0.91888261       0.92276735       0.95787732       0.96176202      -0.47041954E-02   0.29120933E-02
  2199.5000       0.92239368       0.92121005       0.96182167       0.96063799       0.11667717E-02   0.45507142E-02
  2200.0000       0.92004938       0.91985824       0.95991064       0.95971946      -0.15348118E-03   0.26002225E-02
  2201.0000       0.92216346       0.91775010       0.96289127       0.95847787       0.50671055E-02   0.74978930E-03
  2202.0000       0.93018359       0.91640091       0.97177795       0.95799523       0.13460974E-02  -0.26080193E-02
  2203.0000       0.92485566       0.91576868       0.96731656       0.95822955      -0.14893307E-03   0.57208793E-03
  2204.0000       0.92988573       0.91581139       0.97321318       0.95913881       0.24902733E-02   0.19024117E-02
  2205.0000       0.92983620       0.91648704       0.97403021       0.96068101       0.36558903E-02  -0.11938803E-02
  2206.0000       0.93719751       0.91775361       0.98225806       0.96281413       0.10251274E-03  -0.20719914E-02
  2207.0000       0.93004123       0.91956911       0.97596833       0.96549617      -0.48809252E-03   0.18653770E-02
  2208.0000       0.93622132       0.92189151       0.98301498       0.96868512       0.38332668E-02  -0.11500234E-03
  2209.0000       0.93770776       0.92467881       0.98536796       0.97233898      -0.71809721E-03  -0.15310905E-02
  2210.0000       0.93478513       0.92788901       0.98331188       0.97641572       0.77108569E-03   0.30085783E-02
  2211.0000       0.93924993       0.93148009       0.98864323       0.98087336       0.52990593E-02   0.11782867E-02
  2212.0000       0.94538325       0.93541006       0.99564310       0.98566987       0.31276592E-02  -0.78747368E-03
  2213.0000       0.94550525       0.93963689       0.99663165       0.99076325       0.37241120E-02   0.23887351E-02
  2214.0000       0.95283147       0.94411858        1.0048244       0.99611149       0.79051294E-02   0.30894698E-03
  2215.0000       0.96131551       0.94881312        1.0141750        1.0016726       0.43420059E-02  -0.20934325E-02
  2216.0000       0.96151548       0.95367851        1.0152415        1.0074045       0.37182644E-02   0.32356592E-03
  2217.0000       0.96875204       0.95867274        1.0233446        1.0132653       0.49891378E-02   0.11207856E-02
  2218.0000       0.97149376       0.96375379        1.0269529        1.0192129       0.59598355E-02   0.25670862E-02
  2219.0000       0.98067171       0.96887966        1.0369974        1.0252053       0.10123310E-01   0.92196795E-03
  2220.0000       0.99174038       0.97400835        1.0489326        1.0312006       0.78037714E-02  -0.41469066E-02
  2221.0000       0.99627925       0.97909783        1.0543380        1.0371566       0.18294971E-02  -0.40192345E-02
  2222.0000       0.99539937       0.98410612        1.0543247        1.0430314      -0.23469753E-03  -0.30212480E-03
  2223.0000       0.99580986       0.98899119        1.0556018        1.0487830       0.12252475E-02   0.40055901E-03
  2224.0000       0.99784987       0.99371104        1.0585083        1.0543694       0.56642050E-03   0.44899644E-02
  2225.0000       0.99694270       0.99822365        1.0584677        1.0597486       0.10205176E-01   0.42619089E-02
  2226.0000        1.0182602        1.0024870        1.0806518        1.0648785       0.90902383E-02  -0.37980012E-02
  2227.0000        1.0151232        1.0064592        1.0783813        1.0697172       0.26091740E-02  -0.45162785E-02
  2228.0000        1.0234786        1.0100981        1.0876032        1.0742227       0.57681314E-04   0.22435203E-02
  2229.0000        1.0152385        1.0133617        1.0802297        1.0783528       0.70962146E-02   0.12669750E-04
  2230.0000        1.0376710        1.0162080        1.1035287        1.0820657       0.83020813E-04  -0.95257027E-02
  2231.0000        1.0154046        1.0185951        1.0821289        1.0853193      -0.11955191E-01   0.23205134E-02
  2232.0000        1.0137606        1.0204809        1.0813515        1.0880717       0.47240476E-02   0.86700073E-02
  2233.0000        1.0248527        1.0218234        1.0933101        1.0902807       0.53848238E-02  -0.14160882E-02
  2234.0000        1.0245303        1.0225805        1.0938542        1.0919044       0.18918712E-02  -0.12864669E-02
  2235.0000        1.0286364        1.0227104        1.0988269        1.0929009       0.28118900E-02  -0.79527045E-03
  2236.0000        1.0301540        1.0221710        1.1012111        1.0932280       0.30133035E-03  -0.44646249E-02
  2237.0000        1.0292391        1.0209202        1.1011627        1.0928437      -0.61173598E-02  -0.58105422E-02
  2238.0000        1.0179193        1.0189161        1.0907095        1.0917062      -0.11319754E-01  -0.52023942E-02
