# XDI/1.0 Athena/0.9.26
# Element.edge:                  K
# Element.symbol:                P
# Column.1:                      energy eV
# Column.2:                      norm
# Column.3:                      nbkg
# Column.4:                      flat
# Column.5:                      fbkg
# Column.6:                      nder
# Column.7:                      nsec
# Athena.e0:                     2154
# Athena.eshift:                 0
# Athena.rbkg:                   1.0
# Athena.importance:             1
# Athena.standard:               None
# Athena.bkg_kweight:            2
# Athena.edge_step:              0.1117499
# Athena.fixed_step:             no
# Athena.pre_edge_range:         -17.4 -7
# Athena.pre_edge_line:          3.330362 - 0.00152642 * E
# Athena.normalization_range:    24 61.6
# Athena.post_edge_polynomial:   0.346736 - 8.93875e-005 * E + 0 * E^2 + 0 * E^3
# Athena.spline_range_energy:    0.000 85.601
# Athena.clamps:                 0 24
# Athena.spline_range_k:         0.000 4.740
# Athena.kweight:                2
# Athena.window:                 hanning
# Athena.phase_correction:       no
# Athena.k_range:                2.740 3.000
# Athena.dk:                     1
# Athena.r_range:                1 3
# Athena.dr:                     0.0
# Athena.window:                 hanning
# Athena.plot_multiplier:        1
# Athena.y_offset:               0
# ///
#------------------------
#   e         norm        nbkg        flat        fbkg        nder        nsec
  2105.9000       0.49890052       0.49890071       0.49890071       0.49890071      -0.14584702       0.40918467E-01
  2107.9000       0.20720649       0.20720656       0.20720656       0.20720656      -0.64010086E-01   0.32216734E-01
  2109.9000       0.24286018       0.24286027       0.24286027       0.24286027      -0.16980084E-01   0.97032825E-02
  2111.9000       0.13928615       0.13928620       0.13928620       0.13928620      -0.25196956E-01   0.24433682E-02
  2113.9000       0.14207236       0.14207241       0.14207241       0.14207241      -0.72066111E-02   0.61042761E-02
  2115.9000       0.11045971       0.11045975       0.11045975       0.11045975      -0.77985164E-03   0.90751949E-02
  2117.9000       0.13895295       0.13895300       0.13895300       0.13895300       0.29094168E-01   0.92550831E-02
  2119.9000       0.22683638       0.22683646       0.22683646       0.22683646       0.36240481E-01   0.30501023E-02
  2121.9000       0.28391487       0.28391498       0.28391498       0.28391498       0.41294577E-01  -0.23721066E-01
  2123.9000       0.39201469       0.39201484       0.39201484       0.39201484      -0.58643783E-01  -0.36338676E-01
  2125.9000       0.49339740E-01   0.49339758E-01   0.49339758E-01   0.49339758E-01  -0.10406012       0.10147003E-01
  2127.9000      -0.24225809E-01  -0.24225818E-01  -0.24225818E-01  -0.24225818E-01  -0.18055771E-01   0.26302549E-01
  2129.9000      -0.22883345E-01  -0.22883354E-01  -0.22883354E-01  -0.22883354E-01   0.11500711E-02   0.36909555E-02
  2131.9000      -0.19625525E-01  -0.19625532E-01  -0.19625532E-01  -0.19625532E-01  -0.32919491E-02  -0.20575268E-02
  2133.9000      -0.36051142E-01  -0.36051155E-01  -0.36051155E-01  -0.36051155E-01  -0.70800361E-02   0.84791459E-02
  2135.9000      -0.47945669E-01  -0.47945687E-01  -0.47945687E-01  -0.47945687E-01   0.30624635E-01   0.46953693E-02
  2137.9000       0.86447397E-01   0.86447429E-01   0.86447429E-01   0.86447429E-01   0.11701441E-01  -0.19864818E-01
  2139.9000      -0.11399041E-02  -0.11399046E-02  -0.11399046E-02  -0.11399046E-02  -0.48834636E-01  -0.24035995E-01
  2140.1000      -0.20988802E-01  -0.20988810E-01  -0.20988810E-01  -0.20988810E-01  -0.41177747E-01   0.17357580
  2140.3000      -0.17611003E-01  -0.17611010E-01  -0.17611010E-01  -0.17611010E-01   0.20595685E-01   0.27077771
  2140.5000      -0.12750528E-01  -0.12750533E-01  -0.12750533E-01  -0.12750533E-01   0.67133338E-01   0.13394291
  2140.7000       0.92423322E-02   0.92423355E-02   0.92423356E-02   0.92423355E-02   0.74172850E-01  -0.27081110E-02
  2140.9000       0.16918612E-01   0.16918618E-01   0.16918618E-01   0.16918618E-01   0.66050094E-01  -0.29802029E-02
  2141.1000       0.35662370E-01   0.35662383E-01   0.35662383E-01   0.35662383E-01   0.72980769E-01  -0.64298691E-02
  2141.3000       0.46110919E-01   0.46110937E-01   0.46110937E-01   0.46110937E-01   0.63478146E-01  -0.58918487E-01
  2141.5000       0.61053628E-01   0.61053651E-01   0.61053651E-01   0.61053651E-01   0.49413374E-01  -0.83456475E-01
  2141.7000       0.65876269E-01   0.65876293E-01   0.65876293E-01   0.65876293E-01   0.30095556E-01  -0.26213901
  2141.9000       0.73091851E-01   0.73091878E-01   0.73091878E-01   0.73091878E-01  -0.55442229E-01  -0.49743186
  2142.1000       0.43699377E-01   0.43699393E-01   0.43699394E-01   0.43699393E-01  -0.16887719      -0.23303944
  2142.3000       0.55409754E-02   0.55409774E-02   0.55409775E-02   0.55409774E-02  -0.14865800       0.22999050
  2142.5000      -0.15763825E-01  -0.15763831E-01  -0.15763831E-01  -0.15763831E-01  -0.76880988E-01   0.18446749
  2142.7000      -0.25211420E-01  -0.25211429E-01  -0.25211429E-01  -0.25211429E-01  -0.74871009E-01   0.15534013E-01
  2142.9000      -0.45712228E-01  -0.45712245E-01  -0.45712245E-01  -0.45712245E-01  -0.70667383E-01   0.13258307
  2143.1000      -0.53478373E-01  -0.53478393E-01  -0.53478393E-01  -0.53478393E-01  -0.21837782E-01   0.16880456
  2143.3000      -0.54447341E-01  -0.54447361E-01  -0.54447361E-01  -0.54447361E-01  -0.31455576E-02   0.35042356E-01
  2143.5000      -0.54736596E-01  -0.54736616E-01  -0.54736616E-01  -0.54736616E-01  -0.78208397E-02  -0.26525909E-01
  2143.7000      -0.57575677E-01  -0.57575699E-01  -0.57575698E-01  -0.57575699E-01  -0.13755921E-01   0.23517742E-01
  2143.9000      -0.60238964E-01  -0.60238987E-01  -0.60238987E-01  -0.60238987E-01   0.15862570E-02   0.62779283E-01
  2144.1000      -0.56941174E-01  -0.56941195E-01  -0.56941195E-01  -0.56941195E-01   0.11355792E-01   0.11087757E-01
  2144.3000      -0.55696647E-01  -0.55696668E-01  -0.55696668E-01  -0.55696668E-01   0.60213600E-02   0.51707521E-02
  2144.5000      -0.54532630E-01  -0.54532651E-01  -0.54532651E-01  -0.54532651E-01   0.13424093E-01   0.11673256
  2144.7000      -0.50327010E-01  -0.50327029E-01  -0.50327029E-01  -0.50327029E-01   0.52714382E-01   0.13951148
  2144.9000      -0.33446877E-01  -0.33446890E-01  -0.33446890E-01  -0.33446890E-01   0.69228686E-01   0.35080164E-01
  2145.1000      -0.22635535E-01  -0.22635544E-01  -0.22635544E-01  -0.22635544E-01   0.66746448E-01   0.22257109
  2145.3000      -0.67482983E-02  -0.67483009E-02  -0.67483008E-02  -0.67483009E-02   0.15825712       0.27685669
  2145.5000       0.40667313E-01   0.40667328E-01   0.40667328E-01   0.40667328E-01   0.17748912      -0.52747779
  2145.7000       0.64247351E-01   0.64247375E-01   0.64247375E-01   0.64247375E-01  -0.52733995E-01  -0.74215441
  2145.9000       0.19573715E-01   0.19573722E-01   0.19573722E-01   0.19573722E-01  -0.11937264       0.88057429E-01
  2146.1000       0.16498294E-01   0.16498300E-01   0.16498300E-01   0.16498300E-01  -0.17511024E-01   0.30333556
  2146.3000       0.12569306E-01   0.12569310E-01   0.12569310E-01   0.12569310E-01   0.19615816E-02   0.14658654
  2146.5000       0.17282926E-01   0.17282933E-01   0.17282933E-01   0.17282933E-01   0.41123593E-01   0.12392954
  2146.7000       0.29018743E-01   0.29018754E-01   0.29018754E-01   0.29018754E-01   0.51533397E-01   0.13164162
  2146.9000       0.37896285E-01   0.37896299E-01   0.37896299E-01   0.37896299E-01   0.93780242E-01   0.14078218
  2147.1000       0.66530840E-01   0.66530865E-01   0.66530865E-01   0.66530865E-01   0.10784627      -0.22036891
  2147.3000       0.81034792E-01   0.81034822E-01   0.81034822E-01   0.81034822E-01   0.56326797E-02  -0.43612059
  2147.5000       0.68783912E-01   0.68783937E-01   0.68783937E-01   0.68783937E-01  -0.66601967E-01  -0.15391982
  2147.7000       0.54394006E-01   0.54394026E-01   0.54394026E-01   0.54394026E-01  -0.55935250E-01   0.13048681
  2147.9000       0.46409812E-01   0.46409829E-01   0.46409829E-01   0.46409829E-01  -0.14407241E-01   0.16561166
  2148.1000       0.48631109E-01   0.48631127E-01   0.48631127E-01   0.48631127E-01   0.10309416E-01   0.17733706
  2148.3000       0.50533578E-01   0.50533597E-01   0.50533597E-01   0.50533597E-01   0.56527583E-01   0.12810242
  2148.5000       0.71242142E-01   0.71242169E-01   0.71242169E-01   0.71242169E-01   0.61550382E-01   0.61406072E-02
  2148.7000       0.75153731E-01   0.75153759E-01   0.75153759E-01   0.75153759E-01   0.58983826E-01   0.13511506
  2148.9000       0.94835673E-01   0.94835708E-01   0.94835708E-01   0.94835708E-01   0.11559641       0.17386206
  2149.1000       0.12139229       0.12139234       0.12139234       0.12139234       0.12852865       0.11343602
  2149.3000       0.14624713       0.14624719       0.14624719       0.14624719       0.16097081       0.33009217
  2149.5000       0.18578062       0.18578069       0.18578069       0.18578069       0.26056552       0.53994860
  2149.7000       0.25047334       0.25047343       0.25047343       0.25047343       0.37695026       0.78051310
  2149.9000       0.33656072       0.33656085       0.33656085       0.33656085       0.57277076        1.3054239
  2150.1000       0.47958165       0.47958182       0.47958182       0.47958182       0.89911981        1.5307172
  2150.3000       0.69620865       0.69620891       0.69620891       0.69620891        1.1850577        1.4740027
  2150.5000       0.95360471       0.95360506       0.95360506       0.95360506        1.4887209        1.3821635
  2150.7000        1.2916970        1.2916975        1.2916975        1.2916975        1.7379230        1.7111284
  2150.9000        1.6487739        1.6487745        1.6487745        1.6487745        2.1731723        4.2524194
  2151.1000        2.1609659        2.1609667        2.1609667        2.1609667        3.4388908        7.8468279
  2151.3000        3.0243303        3.0243314        3.0243314        3.0243314        5.3119034        7.4289675
  2151.5000        4.2857273        4.2857289        4.2857289        4.2857289        6.4104778       0.99295242
  2151.7000        5.5885214        5.5885235        5.5885235        5.5885235        5.7090844       -7.2810111
  2151.9000        6.5693611        6.5693635        6.5693635        6.5693635        3.4980734       -11.056874
  2152.1000        6.9877508        6.9877534        6.9877534        6.9877534        1.2863349       -9.1900523
  2152.3000        7.0838950        7.0838976        7.0838976        7.0838976      -0.17794753       -5.9094981
  2152.5000        6.9165717        6.9165743        6.9165743        6.9165743       -1.0774643       -3.5986300
  2152.7000        6.6529093        6.6529118        6.6529118        6.6529118       -1.6173995       -2.8163359
  2152.9000        6.2696119        6.2696143        6.2696143        6.2696143       -2.2039987       -2.3370409
  2153.1000        5.7713098        5.7713119        5.7713119        5.7713119       -2.5522159      -0.93272812
  2153.3000        5.2487256        5.2487275        5.2487275        5.2487275       -2.5770899      -0.67483816E-01
  2153.5000        4.7404738        4.7404756        4.7404756        4.7404756       -2.5792094       0.18480435
  2153.7000        4.2170418        4.2170434        4.2170434        4.2170434       -2.5031682       0.90885282
  2153.9000        3.7392065        3.7392079        3.7404935        3.7404935       -2.2156683        1.4775209
  2154.1000        3.3307745       0.22875294        3.3294894       0.22746662       -1.9121598        1.3427390
  2154.3000        2.9743426       0.41473071        2.9704855       0.41087252       -1.6785727        1.1922791
  2154.5000        2.6593454       0.47770178        2.6529164       0.47127171       -1.4352482        1.4272524
  2154.7000        2.4002433       0.53911805        2.3912423       0.53011610       -1.1076717        1.3732887
  2154.9000        2.2162767       0.59899613        2.2047037       0.58742230      -0.88593269       0.85377394
  2155.1000        2.0458703       0.65735265        2.0317253       0.64320694      -0.76616215       0.69752106
  2155.3000        1.9098119       0.71420422        1.8930950       0.69748663      -0.60692426       0.69615976
  2155.5000        1.8031005       0.76956747        1.7838117       0.75027800      -0.48769825       0.47974354
  2155.7000        1.7147326       0.82345900        1.6928719       0.80159765      -0.41502685       0.47327094
  2155.9000        1.6370898       0.87589544        1.6126572       0.85146221      -0.29838987       0.39363443
  2156.1000        1.5953766       0.92689341        1.5683721       0.89988830      -0.25757307       0.25516680
  2156.3000        1.5340606       0.97646953        1.5044842       0.94689254      -0.19632315       0.31763328
  2156.5000        1.5168474        1.0246404        1.4846991       0.99249154      -0.13051976       0.11893910
  2156.7000        1.4818527        1.0714227        1.4471325        1.0367019      -0.14874751       0.74633149E-01
  2156.9000        1.4573484        1.1168329        1.4200563        1.0795403      -0.10066650       0.14917625
  2157.1000        1.4415861        1.1608878        1.4017221        1.1210233      -0.89077012E-01   0.23666679E-01
  2157.3000        1.4217176        1.2036040        1.3792817        1.1611676      -0.91199832E-01   0.18988545
  2157.5000        1.4051061        1.2449980        1.3600984        1.1999897      -0.13122833E-01   0.25829376
  2157.7000        1.4164684        1.2850864        1.3688888        1.2375063       0.12117672E-01  -0.22841735E-01
  2157.9000        1.4099532        1.3238860        1.3598017        1.2737340      -0.22259527E-01  -0.72071067E-01
  2158.1000        1.4075646        1.3614133        1.3548412        1.3086894      -0.16710755E-01   0.19718690E-01
  2158.3000        1.4032689        1.3976849        1.3479736        1.3423891      -0.14372051E-01  -0.46452485E-01
  2158.5000        1.4018158        1.4327174        1.3439486        1.3748498      -0.35291749E-01  -0.43345101E-01
  2158.7000        1.3891522        1.4665276        1.3287132        1.4060880      -0.31710091E-01   0.63477102E-01
  2158.9000        1.3891318        1.4991319        1.3261208        1.4361205      -0.99009079E-02   0.11461863
  2159.1000        1.3851918        1.5305470        1.3196091        1.4649637       0.14137360E-01   0.96325554E-01
  2159.3000        1.3947867        1.5607896        1.3266320        1.4926344       0.28629314E-01   0.10585800
  2159.5000        1.3966436        1.5898762        1.3259170        1.5191491       0.56480559E-01   0.80760669E-01
  2159.7000        1.4173789        1.6178235        1.3440805        1.5445245       0.60933581E-01  -0.49879301E-01
  2159.9000        1.4210170        1.6446480        1.3451467        1.5687772       0.36528838E-01  -0.19541205E-01
  2160.4000        1.4429491        1.7069066        1.3606491        1.6246061       0.47254737E-01   0.25781656E-01
  2160.9000        1.4682717        1.7625117        1.3795421        1.6737815       0.62310495E-01   0.14205556E-01
  2161.4000        1.5052596        1.8117231        1.4101002        1.7165631       0.61460293E-01   0.20483590E-01
  2161.9000        1.5297320        1.8548003        1.4281430        1.7532107       0.82794085E-01   0.37310355E-01
  2162.4000        1.5880537        1.8920031        1.4800350        1.7839838       0.98770648E-01   0.76161114E-02
  2162.9000        1.6285027        1.9235911        1.5140543        1.8091421       0.90410196E-01   0.15083408E-01
  2163.4000        1.6784639        1.9498240        1.5575858        1.8289453       0.11385406       0.31983283E-01
  2163.9000        1.7423567        1.9709615        1.6150490        1.8436531       0.12239348      -0.44674744E-02
  2164.4000        1.8008574        1.9872632        1.6671199        1.8535251       0.10938658      -0.11632310E-01
  2164.9000        1.8517433        1.9989888        1.7115762        1.8588210       0.11076117      -0.16227302E-01
  2165.4000        1.9116185        2.0063979        1.7650217        1.8598004       0.93159280E-01  -0.22942741E-01
  2165.9000        1.9449026        2.0097503        1.7918761        1.8567231       0.87818427E-01   0.78257759E-02
  2166.4000        1.9994370        2.0093056        1.8399808        1.8498487       0.10098506      -0.56084056E-01
  2166.9000        2.0458877        2.0053235        1.8800018        1.8394368       0.31734371E-01  -0.10402565
  2167.4000        2.0311713        1.9980635        1.8588558        1.8257472      -0.30405911E-02  -0.32823820E-01
  2167.9000        2.0428471        1.9877855        1.8641018        1.8090395      -0.10894491E-02   0.10323048E-02
  2168.4000        2.0300819        1.9747490        1.8449069        1.7895733      -0.20082863E-02   0.47284141E-02
  2168.9000        2.0408388        1.9592138        1.8492341        1.7676084       0.36389650E-02  -0.29789904E-01
  2169.4000        2.0337209        1.9414395        1.8356865        1.7434044      -0.31798190E-01  -0.30741403E-01
  2169.9000        2.0090406        1.9216857        1.8045765        1.7172209      -0.27102438E-01  -0.11825420E-01
  2170.4000        2.0066184        1.9002122        1.7957246        1.6893177      -0.43623610E-01  -0.60641821E-01
  2170.9000        1.9654170        1.8772786        1.7480935        1.6599544      -0.87744259E-01  -0.30566369E-01
  2171.4000        1.9188742        1.8531445        1.6951209        1.6293906      -0.74189979E-01   0.34415052E-01
  2171.9000        1.8912270        1.8280697        1.6610441        1.5978861      -0.53329208E-01   0.27789008E-01
  2172.4000        1.8655449        1.8023138        1.6289323        1.5657005      -0.46400972E-01  -0.84003623E-02
  2172.9000        1.8448260        1.7761365        1.6017837        1.5330935      -0.61729570E-01  -0.51693360E-01
  2173.4000        1.8038154        1.7497974        1.5543433        1.5003247      -0.98094332E-01  -0.11962691E-01
  2173.9000        1.7467317        1.7235562        1.4908299        1.4676538      -0.73692261E-01   0.44617294E-01
  2174.4000        1.7301231        1.6976726        1.4677916        1.4353405      -0.53477038E-01  -0.12703183E-01
  2174.9000        1.6932547        1.6724062        1.4244935        1.4036444      -0.86395444E-01  -0.29863461E-01
  2175.4000        1.6437277        1.6480166        1.3685368        1.3728251      -0.83340499E-01   0.29130306E-01
  2175.9000        1.6099142        1.6246943        1.3282935        1.3430731      -0.57265138E-01   0.27010663E-01
  2176.4000        1.5864625        1.6024525        1.2984122        1.3144015      -0.56329836E-01  -0.92404523E-02
  2176.9000        1.5535843        1.5812762        1.2591043        1.2867956      -0.66505591E-01  -0.11914100E-02
  2177.4000        1.5199569        1.5611507        1.2190472        1.2602404      -0.57521246E-01   0.85648367E-02
  2177.9000        1.4960631        1.5420610        1.1887236        1.2347209      -0.57940754E-01   0.68958425E-02
  2178.4000        1.4620162        1.5239921        1.1482470        1.2102224      -0.50625403E-01   0.37514650E-01
  2178.9000        1.4454377        1.5069293        1.1252388        1.1867299      -0.20426104E-01   0.35747580E-01
  2179.4000        1.4415901        1.4908576        1.1149615        1.1642285      -0.14877823E-01   0.10271415E-01
  2179.9000        1.4305599        1.4757621        1.0975016        1.1427033      -0.10154689E-01   0.71919501E-03
  2180.4000        1.4314354        1.4616279        1.0919474        1.1221394      -0.14158628E-01  -0.48506513E-02
  2180.9000        1.4164012        1.4484401        1.0704835        1.1025219      -0.15005340E-01  -0.51368259E-02
  2181.4000        1.4164301        1.4361839        1.0640827        1.0838359      -0.19295454E-01  -0.24649767E-01
  2181.9000        1.3971058        1.4248442        1.0383287        1.0660666      -0.39655107E-01  -0.11291907E-01
  2182.4000        1.3767749        1.4144063        1.0115681        1.0491990      -0.30587362E-01   0.25429365E-01
  2182.9000        1.3665184        1.4048552       0.99488189        1.0332182      -0.14225742E-01   0.25684756E-01
  2183.4000        1.3625492        1.3961760       0.98448299        1.0181093      -0.49026055E-02   0.18822113E-01
  2183.9000        1.3616158        1.3883539       0.97711989        1.0038575       0.45963704E-02   0.14825332E-01
  2184.4000        1.3671456        1.3813739       0.97621996       0.99044779       0.99227267E-02  -0.93718170E-03
  2184.9000        1.3715385        1.3752211       0.97418322       0.97786532       0.36591887E-02   0.32572724E-02
  2185.4000        1.3708048        1.3698807       0.96701976       0.96609519       0.13179999E-01   0.23837059E-01
  2185.9000        1.3847185        1.3653377       0.97450382       0.95512250       0.27496248E-01  -0.15434818E-01
  2186.4000        1.3983010        1.3615773       0.98165661       0.94493235      -0.22548188E-02  -0.25992139E-01
  2186.9000        1.3824637        1.3585845       0.95938960       0.93550984       0.15041093E-02   0.12099514E-01
  2187.4000        1.3998051        1.3563444       0.97030132       0.92684008       0.98446953E-02  -0.51434479E-02
  2187.9000        1.3923084        1.3548422       0.95637490       0.91890816      -0.36393386E-02  -0.65185716E-02
  2188.4000        1.3961658        1.3540629       0.95380258       0.91169920       0.33261237E-02   0.58022402E-02
  2188.9000        1.3956345        1.3539917       0.94684163       0.90519829       0.21629016E-02   0.11223272E-01
  2189.4000        1.3983287        1.3546137       0.94310609       0.89939054       0.14549396E-01   0.20643590E-01
  2189.9000        1.4101839        1.3559139       0.94853163       0.89426105       0.22806492E-01  -0.21703814E-02
  2190.4000        1.4211352        1.3578774       0.95305319       0.88979491       0.12379014E-01  -0.23104442E-01
  2190.9000        1.4225629        1.3604895       0.94805125       0.88597724      -0.29794982E-03  -0.20075178E-02
  2191.4000        1.4208372        1.3637351       0.93989584       0.88279314       0.10371496E-01   0.33558944E-01
  2191.9000        1.4329344        1.3675993       0.94556335       0.88022770       0.33260994E-01  -0.73808540E-02
  2192.4000        1.4540982        1.3720673       0.96029745       0.87826603       0.29906425E-02  -0.45008793E-01
  2192.9000        1.4359251        1.3771242       0.93569459       0.87689323      -0.11747799E-01   0.10525464E-01
  2193.4000        1.4423504        1.3827551       0.93569024       0.87609441       0.13516107E-01   0.40157515E-01
  2193.9000        1.4494412        1.3889451       0.93635131       0.87585466       0.28409716E-01   0.92493113E-02
  2194.4000        1.4707601        1.3956792       0.95124057       0.87615909       0.22765418E-01  -0.23701668E-01
  2194.9000        1.4722066        1.4029426       0.94625733       0.87699281       0.47080483E-02  -0.14918308E-01
  2195.4000        1.4754682        1.4107204       0.94308922       0.87834091       0.78471104E-02   0.46938906E-01
  2195.9000        1.4800537        1.4189977       0.94124505       0.88018849       0.51646954E-01   0.33627669E-01
  2196.4000        1.5271151        1.4277596       0.98187679       0.88252067       0.41474779E-01  -0.59133722E-01
  2196.9000        1.5215285        1.4369911       0.96986044       0.88532253      -0.74867679E-02  -0.35861048E-01
  2197.4000        1.5196284        1.4466775       0.96153062       0.88857919       0.56137311E-02   0.89834499E-02
  2197.9000        1.5271422        1.4568038       0.96261477       0.89227575       0.14966820E-02  -0.13558038E-01
  2198.4000        1.5211251        1.4673550       0.95016791       0.89639730      -0.79443073E-02   0.17852985E-01
  2198.9000        1.5191979        1.4783164       0.94181106       0.90092895       0.19349667E-01   0.43832148E-01
  2199.4000        1.5404747        1.4896729       0.95665818       0.90585581       0.35887841E-01  -0.64659243E-02
  2199.9000        1.5550858        1.5014098       0.96483952       0.91116297       0.12883742E-01  -0.14879620E-01
  2200.9000        1.5598003        1.5259648       0.95669470       0.92285861       0.13568411E-01   0.74037026E-02
  2201.9000        1.5822226        1.5518623       0.96625755       0.93589671       0.27691148E-01   0.34071830E-02
  2202.9000        1.6151826        1.5789831       0.98635822       0.95015807       0.20382777E-01  -0.57081462E-02
  2203.9000        1.6229881        1.6072079       0.98130432       0.96552352       0.16274855E-01  -0.27292855E-02
  2204.9000        1.6477323        1.6364177       0.99318914       0.98187388       0.14924206E-01  -0.23287932E-02
  2205.9000        1.6528365        1.6664932       0.98543394       0.99908996       0.11617269E-01   0.93915262E-02
  2206.9000        1.6709669        1.6973152       0.99070489        1.0170526       0.33707258E-01   0.14815891E-01
  2207.9000        1.7202511        1.7287646        1.0271297        1.0356426       0.41249052E-01  -0.70294444E-02
  2208.9000        1.7534650        1.7607222        1.0474842        1.0547407       0.19648369E-01  -0.19960928E-01
  2209.9000        1.7595478        1.7930687        1.0407076        1.0742279       0.13271964E-02   0.13332445E-02
  2210.9000        1.7561194        1.8256851        1.0244198        1.0939849       0.22314858E-01   0.15509874E-01
  2211.9000        1.8041775        1.8584521        1.0596186        1.1138925       0.32346944E-01   0.36056395E-02
  2212.9000        1.8208133        1.8912506        1.0633949        1.1338316       0.29526137E-01   0.14551529E-01
  2213.9000        1.8632298        1.9239614        1.0929521        1.1536830       0.61450002E-01   0.30502700E-02
  2214.9000        1.9437133        1.9564652        1.1605762        1.1733274       0.35626677E-01  -0.37580422E-01
  2215.9000        1.9344831        1.9886430        1.1384867        1.1926458      -0.13710843E-01  -0.18588958E-01
  2216.9000        1.9162916        2.0203755        1.1074357        1.2115189      -0.15512391E-02   0.25839924E-01
  2217.9000        1.9313807        2.0515436        1.1096654        1.2298276       0.37969005E-01   0.23053480E-01
  2218.9000        1.9922296        2.0820280        1.1576549        1.2474526       0.44555720E-01  -0.97935622E-02
  2219.9000        2.0204921        2.1117096        1.1730581        1.2642748       0.18381881E-01  -0.14629694E-01
  2220.9000        2.0289934        2.1404692        1.1686999        1.2801750       0.15296331E-01  -0.10479871E-02
  2221.9000        2.0510848        2.1681877        1.1779319        1.2950341       0.16285907E-01   0.30679658E-02
  2222.9000        2.0615652        2.1947458        1.1755529        1.3087328       0.21432263E-01   0.35705164E-02
  2223.9000        2.0939493        2.2200243        1.1950777        1.3211519       0.23426940E-01   0.17108197E-01
  2224.9000        2.1084190        2.2439042        1.1966880        1.3321724       0.55648657E-01   0.90585707E-01
  2225.9000        2.2052466        2.2662661        1.2806562        1.3416749       0.20459835       0.46432127E-01
  2226.9000        2.5176158        2.2869910        1.5801661        1.3495404       0.14851291      -0.15892863
  2227.9000        2.5022724        2.3059596        1.5519634        1.3556496      -0.11325890      -0.12847181
  2228.9000        2.2910979        2.3230527        1.3279294        1.3598833      -0.10843071       0.64242494E-01
  2229.9000        2.2854110        2.3381513        1.3093830        1.3621225       0.15226085E-01   0.62470480E-01
  2230.9000        2.3215501        2.3511360        1.3326628        1.3622478       0.16510247E-01  -0.96307433E-02
  2231.9000        2.3184315        2.3618878        1.3166848        1.3601402      -0.40354014E-02  -0.11482109E-02
  2232.9000        2.3134793        2.3702874        1.2988732        1.3556804       0.14213825E-01   0.15355042E-01
  2233.9000        2.3468591        2.3762156        1.3193936        1.3487492       0.26674682E-01  -0.66576097E-02
  2234.9000        2.3668287        2.3795533        1.3265038        1.3392275       0.89860562E-03  -0.21948938E-01
  2235.9000        2.3486564        2.3801814        1.2954720        1.3269962      -0.17223194E-01   0.76343664E-02
  2236.9000        2.3323823        2.3779805        1.2663386        1.3119359       0.16167338E-01   0.32915968E-01
  2237.9000        2.3809910        2.3728315        1.3020879        1.2939275       0.48608742E-01   0.32441404E-01
