# XDI/1.0 Athena/0.9.26
# Element.edge:                  K
# Element.symbol:                P
# Column.1:                      energy eV
# Column.2:                      xmu
# Column.3:                      bkg
# Column.4:                      pre_edge
# Column.5:                      post_edge
# Column.6:                      der
# Column.7:                      sec
# Column.8:                      i0
# Column.9:                      chi(e)
# Athena.e0:                     2154
# Athena.eshift:                 0.49
# Athena.rbkg:                   1.0
# Athena.importance:             1
# Athena.standard:               None
# Athena.bkg_kweight:            2
# Athena.edge_step:              0.4463874
# Athena.fixed_step:             no
# Athena.pre_edge_range:         -25 -10
# Athena.pre_edge_line:          0.448244 - 0.000162304 * E
# Athena.normalization_range:    28 51
# Athena.post_edge_polynomial:   -0.020410 + 0.000262506 * E + 0 * E^2 + 0 * E^3
# Athena.spline_range_energy:    0.000 85.601
# Athena.clamps:                 0 24
# Athena.spline_range_k:         0.000 4.740
# Athena.kweight:                2
# Athena.window:                 hanning
# Athena.phase_correction:       no
# Athena.k_range:                2.740 3.000
# Athena.dk:                     1
# Athena.r_range:                1 3
# Athena.dr:                     0.0
# Athena.window:                 hanning
# Athena.plot_multiplier:        1
# Athena.y_offset:               0
# ///
#------------------------
#   e         xmu        bkg        pre_edge        post_edge        der        sec        i0        chie
  2125.4900       0.11094300       0.11094300       0.10326787       0.53754397      -0.13630000E-02   0.26375000E-04    1.0000000        0.0000000
  2127.4900       0.10821700       0.10821700       0.10294326       0.53806898      -0.13102500E-02   0.39562500E-04    1.0000000        0.0000000
  2129.4900       0.10570200       0.10570200       0.10261865       0.53859400      -0.12047500E-02   0.15343750E-03    1.0000000        0.0000000
  2131.4900       0.10339800       0.10339800       0.10229404       0.53911901      -0.69650000E-03   0.90875000E-04    1.0000000        0.0000000
  2133.4900       0.10291600       0.10291600       0.10196943       0.53964402      -0.84125000E-03   0.17375000E-04    1.0000000        0.0000000
  2135.4900       0.10003300       0.10003300       0.10164482       0.54016903      -0.62700000E-03   0.13732500E-03    1.0000000        0.0000000
  2137.4900       0.10040800       0.10040800       0.10132022       0.54069404      -0.29195000E-03   0.11372500E-03    1.0000000        0.0000000
  2139.4900       0.98865200E-01   0.98865200E-01   0.10099561       0.54121905      -0.17210000E-03   0.27304394E-03    1.0000000        0.0000000
  2140.4900       0.99891700E-01   0.99891700E-01   0.10083330       0.54148156       0.52718182E-03  -0.15808182E-02    1.0000000        0.0000000
  2140.5900       0.99445100E-01   0.99445100E-01   0.10081707       0.54150781      -0.19110000E-02  -0.66584091E-02    1.0000000        0.0000000
  2140.6900       0.99509500E-01   0.99509500E-01   0.10080084       0.54153406      -0.80450000E-03   0.11037500E-01    1.0000000        0.0000000
  2140.7900       0.99284200E-01   0.99284200E-01   0.10078461       0.54156031       0.29650000E-03   0.14300000E-01    1.0000000        0.0000000
  2140.8900       0.99568800E-01   0.99568800E-01   0.10076838       0.54158656       0.20555000E-02   0.91850000E-02    1.0000000        0.0000000
  2140.9900       0.99695300E-01   0.99695300E-01   0.10075215       0.54161281       0.21335000E-02  -0.27250000E-01    1.0000000        0.0000000
  2141.0900       0.99995500E-01   0.99995500E-01   0.10073592       0.54163906      -0.33945000E-02  -0.35565000E-01    1.0000000        0.0000000
  2141.1900       0.99016400E-01   0.99016400E-01   0.10071969       0.54166531      -0.49795000E-02   0.29170000E-01    1.0000000        0.0000000
  2141.2900       0.98999600E-01   0.98999600E-01   0.10070346       0.54169157       0.24395000E-02   0.49370000E-01    1.0000000        0.0000000
  2141.3900       0.99504300E-01   0.99504300E-01   0.10068723       0.54171782       0.48945000E-02  -0.29325000E-02    1.0000000        0.0000000
  2141.4900       0.99978500E-01   0.99978500E-01   0.10067100       0.54174407       0.18530000E-02  -0.23885000E-01    1.0000000        0.0000000
  2141.5900       0.99874900E-01   0.99874900E-01   0.10065477       0.54177032       0.11750000E-03  -0.30625000E-02    1.0000000        0.0000000
  2141.6900       0.10000200       0.10000200       0.10063854       0.54179657       0.12405000E-02   0.61125000E-02    1.0000000        0.0000000
  2141.7900       0.10012300       0.10012300       0.10062231       0.54182282       0.13400000E-02   0.81975000E-02    1.0000000        0.0000000
  2141.8900       0.10027000       0.10027000       0.10060608       0.54184907       0.28800000E-02  -0.29037500E-01    1.0000000        0.0000000
  2141.9900       0.10069900       0.10069900       0.10058985       0.54187532      -0.44675000E-02  -0.11100000E-01    1.0000000        0.0000000
  2142.0900       0.99376500E-01   0.99376500E-01   0.10057362       0.54190157       0.66000000E-03   0.56450000E-01    1.0000000        0.0000000
  2142.1900       0.10083100       0.10083100       0.10055739       0.54192782       0.68225000E-02   0.57500000E-03    1.0000000        0.0000000
  2142.2900       0.10074100       0.10074100       0.10054115       0.54195407       0.77500000E-03  -0.34587500E-01    1.0000000        0.0000000
  2142.3900       0.10098600       0.10098600       0.10052492       0.54198032      -0.95000000E-04  -0.14575000E-01    1.0000000        0.0000000
  2142.4900       0.10072200       0.10072200       0.10050869       0.54200657      -0.21400000E-02  -0.12575000E-01    1.0000000        0.0000000
  2142.5900       0.10055800       0.10055800       0.10049246       0.54203282      -0.26100000E-02   0.94000000E-02    1.0000000        0.0000000
  2142.6900       0.10020000       0.10020000       0.10047623       0.54205907      -0.26000000E-03   0.17125000E-01    1.0000000        0.0000000
  2142.7900       0.10050600       0.10050600       0.10046000       0.54208532       0.81500000E-03   0.44250000E-02    1.0000000        0.0000000
  2142.8900       0.10036300       0.10036300       0.10044377       0.54211157       0.62500000E-03   0.37200000E-01    1.0000000        0.0000000
  2142.9900       0.10063100       0.10063100       0.10042754       0.54213783       0.82550000E-02   0.20450000E-01    1.0000000        0.0000000
  2143.0900       0.10201400       0.10201400       0.10041131       0.54216408       0.47150000E-02  -0.41025000E-01    1.0000000        0.0000000
  2143.1900       0.10157400       0.10157400       0.10039508       0.54219033       0.50000000E-04  -0.34000000E-01    1.0000000        0.0000000
  2143.2900       0.10202400       0.10202400       0.10037885       0.54221658      -0.20850000E-02   0.25250000E-02    1.0000000        0.0000000
  2143.3900       0.10115700       0.10115700       0.10036262       0.54224283       0.55500000E-03   0.22050000E-01    1.0000000        0.0000000
  2143.4900       0.10213500       0.10213500       0.10034639       0.54226908       0.23250000E-02  -0.14950000E-01    1.0000000        0.0000000
  2143.5900       0.10162200       0.10162200       0.10033016       0.54229533      -0.24350000E-02   0.63250000E-02    1.0000000        0.0000000
  2143.6900       0.10164800       0.10164800       0.10031393       0.54232158       0.35900000E-02   0.22025000E-01    1.0000000        0.0000000
  2143.7900       0.10234000       0.10234000       0.10029770       0.54234783       0.19700000E-02  -0.27300000E-01    1.0000000        0.0000000
  2143.8900       0.10204200       0.10204200       0.10028147       0.54237408      -0.18700000E-02   0.36000000E-02    1.0000000        0.0000000
  2143.9900       0.10196600       0.10196600       0.10026524       0.54240033       0.26900000E-02   0.35075000E-01    1.0000000        0.0000000
  2144.0900       0.10258000       0.10258000       0.10024901       0.54242658       0.51450000E-02  -0.44500000E-02    1.0000000        0.0000000
  2144.1900       0.10299500       0.10299500       0.10023278       0.54245283       0.18000000E-02  -0.14675000E-01    1.0000000        0.0000000
  2144.2900       0.10294000       0.10294000       0.10021655       0.54247908       0.22100000E-02  -0.47750000E-02    1.0000000        0.0000000
  2144.3900       0.10343700       0.10343700       0.10020032       0.54250533       0.84500000E-03  -0.35650000E-01    1.0000000        0.0000000
  2144.4900       0.10310900       0.10310900       0.10018409       0.54253158      -0.49200000E-02   0.46000000E-02    1.0000000        0.0000000
  2144.5900       0.10245300       0.10245300       0.10016786       0.54255783       0.17650000E-02   0.78250000E-01    1.0000000        0.0000000
  2144.6900       0.10346200       0.10346200       0.10015162       0.54258409       0.10730000E-01   0.20275000E-01    1.0000000        0.0000000
  2144.7900       0.10459900       0.10459900       0.10013539       0.54261034       0.58200000E-02  -0.80650000E-01    1.0000000        0.0000000
  2144.8900       0.10462600       0.10462600       0.10011916       0.54263659      -0.54000000E-02  -0.71000000E-02    1.0000000        0.0000000
  2144.9900       0.10351900       0.10351900       0.10010293       0.54266284       0.44000000E-02   0.66000000E-01    1.0000000        0.0000000
  2145.0900       0.10550600       0.10550600       0.10008670       0.54268909       0.78000000E-02  -0.16725000E-01    1.0000000        0.0000000
  2145.1900       0.10507900       0.10507900       0.10007047       0.54271534       0.10550000E-02  -0.13000000E-02    1.0000000        0.0000000
  2145.2900       0.10571700       0.10571700       0.10005424       0.54274159       0.75400000E-02   0.97750000E-02    1.0000000        0.0000000
  2145.3900       0.10658700       0.10658700       0.10003801       0.54276784       0.30100000E-02  -0.38325000E-01    1.0000000        0.0000000
  2145.4900       0.10631900       0.10631900       0.10002178       0.54279409      -0.12500000E-03   0.82500000E-03    1.0000000        0.0000000
  2145.5900       0.10656200       0.10656200       0.10000555       0.54282034       0.31750000E-02   0.36175000E-01    1.0000000        0.0000000
  2145.6900       0.10695400       0.10695400       0.99989320E-01   0.54284659       0.71100000E-02   0.22200000E-01    1.0000000        0.0000000
  2145.7900       0.10798400       0.10798400       0.99973090E-01   0.54287284       0.76150000E-02  -0.17375000E-01    1.0000000        0.0000000
  2145.8900       0.10847700       0.10847700       0.99956859E-01   0.54289909       0.36350000E-02  -0.18350000E-01    1.0000000        0.0000000
  2145.9900       0.10871100       0.10871100       0.99940629E-01   0.54292534       0.39450000E-02   0.30875000E-01    1.0000000        0.0000000
  2146.0900       0.10926600       0.10926600       0.99924399E-01   0.54295159       0.98100000E-02   0.61250000E-02    1.0000000        0.0000000
  2146.1900       0.11067300       0.11067300       0.99908168E-01   0.54297784       0.51700000E-02  -0.12250000E-01    1.0000000        0.0000000
  2146.2900       0.11030000       0.11030000       0.99891938E-01   0.54300409       0.73600000E-02   0.38250000E-02    1.0000000        0.0000000
  2146.3900       0.11214500       0.11214500       0.99875707E-01   0.54303035       0.59350000E-02  -0.30275000E-01    1.0000000        0.0000000
  2146.4900       0.11148700       0.11148700       0.99859477E-01   0.54305660       0.13050000E-02   0.10425000E-01    1.0000000        0.0000000
  2146.5900       0.11240600       0.11240600       0.99843246E-01   0.54308285       0.80200000E-02   0.31275000E-01    1.0000000        0.0000000
  2146.6900       0.11309100       0.11309100       0.99827016E-01   0.54310910       0.75600000E-02   0.22750000E-02    1.0000000        0.0000000
  2146.7900       0.11391800       0.11391800       0.99810785E-01   0.54313535       0.84750000E-02   0.21200000E-01    1.0000000        0.0000000
  2146.8900       0.11478600       0.11478600       0.99794555E-01   0.54316160       0.11800000E-01   0.24000000E-01    1.0000000        0.0000000
  2146.9900       0.11627800       0.11627800       0.99778325E-01   0.54318785       0.13275000E-01  -0.27025000E-01    1.0000000        0.0000000
  2147.0900       0.11744100       0.11744100       0.99762094E-01   0.54321410       0.63950000E-02  -0.22575000E-01    1.0000000        0.0000000
  2147.1900       0.11755700       0.11755700       0.99745864E-01   0.54324035       0.87600000E-02   0.22825000E-01    1.0000000        0.0000000
  2147.2900       0.11919300       0.11919300       0.99729633E-01   0.54326660       0.10960000E-01   0.34250000E-02    1.0000000        0.0000000
  2147.3900       0.11974900       0.11974900       0.99713403E-01   0.54329285       0.94450000E-02   0.12700000E-01    1.0000000        0.0000000
  2147.4900       0.12108200       0.12108200       0.99697172E-01   0.54331910       0.13500000E-01   0.44675000E-01    1.0000000        0.0000000
  2147.5900       0.12244900       0.12244900       0.99680942E-01   0.54334535       0.18380000E-01   0.83000000E-02    1.0000000        0.0000000
  2147.6900       0.12475800       0.12475800       0.99664712E-01   0.54337160       0.15160000E-01  -0.17000000E-02    1.0000000        0.0000000
  2147.7900       0.12548100       0.12548100       0.99648481E-01   0.54339785       0.18040000E-01   0.22350000E-01    1.0000000        0.0000000
  2147.8900       0.12836600       0.12836600       0.99632251E-01   0.54342410       0.19630000E-01  -0.10150000E-01    1.0000000        0.0000000
  2147.9900       0.12940700       0.12940700       0.99616020E-01   0.54345035       0.16010000E-01   0.60000000E-03    1.0000000        0.0000000
  2148.0900       0.13156800       0.13156800       0.99599790E-01   0.54347661       0.19750000E-01   0.45875000E-01    1.0000000        0.0000000
  2148.1900       0.13335700       0.13335700       0.99583559E-01   0.54350286       0.25185000E-01  -0.25750000E-02    1.0000000        0.0000000
  2148.2900       0.13660500       0.13660500       0.99567329E-01   0.54352911       0.19235000E-01  -0.39875000E-01    1.0000000        0.0000000
  2148.3900       0.13720400       0.13720400       0.99551099E-01   0.54355536       0.17210000E-01   0.30850000E-01    1.0000000        0.0000000
  2148.4900       0.14004700       0.14004700       0.99534868E-01   0.54358161       0.25405000E-01   0.43875000E-01    1.0000000        0.0000000
  2148.5900       0.14228500       0.14228500       0.99518638E-01   0.54360786       0.25985000E-01   0.32575000E-01    1.0000000        0.0000000
  2148.6900       0.14524400       0.14524400       0.99502407E-01   0.54363411       0.31920000E-01   0.67575000E-01    1.0000000        0.0000000
  2148.7900       0.14866900       0.14866900       0.99486177E-01   0.54366036       0.39500000E-01   0.31575000E-01    1.0000000        0.0000000
  2148.8900       0.15314400       0.15314400       0.99469946E-01   0.54368661       0.38235000E-01   0.42500000E-03    1.0000000        0.0000000
  2148.9900       0.15631600       0.15631600       0.99453716E-01   0.54371286       0.39585000E-01   0.56800000E-01    1.0000000        0.0000000
  2149.0900       0.16106100       0.16106100       0.99437486E-01   0.54373911       0.49595000E-01   0.59800000E-01    1.0000000        0.0000000
  2149.1900       0.16623500       0.16623500       0.99421255E-01   0.54376536       0.51545000E-01   0.13350000E-01    1.0000000        0.0000000
  2149.2900       0.17137000       0.17137000       0.99405025E-01   0.54379161       0.52265000E-01   0.11542500        1.0000000        0.0000000
  2149.3900       0.17668800       0.17668800       0.99388794E-01   0.54381786       0.74630000E-01   0.13040000        1.0000000        0.0000000
  2149.4900       0.18629600       0.18629600       0.99372564E-01   0.54384411       0.78345000E-01   0.33300000E-01    1.0000000        0.0000000
  2149.5900       0.19235700       0.19235700       0.99356333E-01   0.54387036       0.81290000E-01   0.12940000        1.0000000        0.0000000
  2149.6900       0.20255400       0.20255400       0.99340103E-01   0.54389661       0.10422500       0.16205000        1.0000000        0.0000000
  2149.7900       0.21320200       0.21320200       0.99323872E-01   0.54392287       0.11370000       0.24105000        1.0000000        0.0000000
  2149.8900       0.22529400       0.22529400       0.99307642E-01   0.54394912       0.15243500       0.35175000        1.0000000        0.0000000
  2149.9900       0.24368900       0.24368900       0.99291412E-01   0.54397537       0.18405000       0.36365000        1.0000000        0.0000000
  2150.0900       0.26210400       0.26210400       0.99275181E-01   0.54400162       0.22516500       0.44092500        1.0000000        0.0000000
  2150.1900       0.28872200       0.28872200       0.99258951E-01   0.54402787       0.27223500       0.55862500        1.0000000        0.0000000
  2150.2900       0.31655100       0.31655100       0.99242720E-01   0.54405412       0.33689000       0.75842500        1.0000000        0.0000000
  2150.3900       0.35610000       0.35610000       0.99226490E-01   0.54408037       0.42392000       0.80170000        1.0000000        0.0000000
  2150.4900       0.40133500       0.40133500       0.99210259E-01   0.54410662       0.49723000       0.89647500        1.0000000        0.0000000
  2150.5900       0.45554600       0.45554600       0.99194029E-01   0.54413287       0.60321500        1.1393250        1.0000000        0.0000000
  2150.6900       0.52197800       0.52197800       0.99177799E-01   0.54415912       0.72509500        1.0418000        1.0000000        0.0000000
  2150.7900       0.60056500       0.60056500       0.99161568E-01   0.54418537       0.81157500       0.81787500        1.0000000        0.0000000
  2150.8900       0.68429300       0.68429300       0.99145338E-01   0.54421162       0.88867000       0.90572500        1.0000000        0.0000000
  2150.9900       0.77829900       0.77829900       0.99129107E-01   0.54423787       0.99272000        1.1389250        1.0000000        0.0000000
  2151.0900       0.88283700       0.88283700       0.99112877E-01   0.54426412        1.1164550        1.5082250        1.0000000        0.0000000
  2151.1900        1.0015900        1.0015900       0.99096646E-01   0.54429037        1.2943650        2.1467250        1.0000000        0.0000000
  2151.2900        1.1417100        1.1417100       0.99080416E-01   0.54431662        1.5458000        2.9204250        1.0000000        0.0000000
  2151.3900        1.3107500        1.3107500       0.99064186E-01   0.54434287        1.8784500        3.3795000        1.0000000        0.0000000
  2151.4900        1.5174000        1.5174000       0.99047955E-01   0.54436913        2.2217000        3.0755000        1.0000000        0.0000000
  2151.5900        1.7550900        1.7550900       0.99031725E-01   0.54439538        2.4935500        2.0852500        1.0000000        0.0000000
  2151.6900        2.0161100        2.0161100       0.99015494E-01   0.54442163        2.6387500       0.20700000        1.0000000        0.0000000
  2151.7900        2.2828400        2.2828400       0.98999264E-01   0.54444788        2.5349500       -2.1717500        1.0000000        0.0000000
  2151.8900        2.5231000        2.5231000       0.98983033E-01   0.54447413        2.2044000       -4.2737500        1.0000000        0.0000000
  2151.9900        2.7237200        2.7237200       0.98966803E-01   0.54450038        1.6802000       -5.3560000        1.0000000        0.0000000
  2152.0900        2.8591400        2.8591400       0.98950573E-01   0.54452663        1.1332000       -4.9102500        1.0000000        0.0000000
  2152.1900        2.9503600        2.9503600       0.98934342E-01   0.54455288       0.69815000       -4.2052500        1.0000000        0.0000000
  2152.2900        2.9987700        2.9987700       0.98918112E-01   0.54457913       0.29215000       -3.8410000        1.0000000        0.0000000
  2152.3900        3.0087900        3.0087900       0.98901881E-01   0.54460538      -0.70050000E-01   -3.6265000        1.0000000        0.0000000
  2152.4900        2.9847600        2.9847600       0.98885651E-01   0.54463163      -0.43315000       -3.4130000        1.0000000        0.0000000
  2152.5900        2.9221600        2.9221600       0.98869420E-01   0.54465788      -0.75265000       -2.0387500        1.0000000        0.0000000
  2152.6900        2.8342300        2.8342300       0.98853190E-01   0.54468413      -0.84090000      -0.98375000        1.0000000        0.0000000
  2152.7900        2.7539800        2.7539800       0.98836959E-01   0.54471038      -0.94940000       -1.5485000        1.0000000        0.0000000
  2152.8900        2.6443500        2.6443500       0.98820729E-01   0.54473663       -1.1506000      -0.99350000        1.0000000        0.0000000
  2152.9900        2.5238600        2.5238600       0.98804499E-01   0.54476288       -1.1481000       0.35150000        1.0000000        0.0000000
  2153.0900        2.4147300        2.4147300       0.98788268E-01   0.54478913       -1.0803000       0.16075000        1.0000000        0.0000000
  2153.1900        2.3078000        2.3078000       0.98772038E-01   0.54481539       -1.1159500      -0.45325000        1.0000000        0.0000000
  2153.2900        2.1915400        2.1915400       0.98755807E-01   0.54484164       -1.1709500       0.14600000        1.0000000        0.0000000
  2153.3900        2.0736100        2.0736100       0.98739577E-01   0.54486789       -1.0867500        1.1912500        1.0000000        0.0000000
  2153.4900        1.9741900        1.9741900       0.98723346E-01   0.54489414      -0.93270000       0.87250000        1.0000000        0.0000000
  2153.5900        1.8870700        1.8870700       0.98707116E-01   0.54492039      -0.91225000       0.32150000        1.0000000        0.0000000
  2153.6900        1.7917400        1.7917400       0.98690886E-01   0.54494664      -0.86840000        1.0895000        1.0000000        0.0000000
  2153.7900        1.7133900        1.7133900       0.98674655E-01   0.54497289      -0.69435000        1.2272500        1.0000000        0.0000000
  2153.8900        1.6528700        1.6528700       0.98658425E-01   0.54499914      -0.62295000       0.56600000        1.0000000        0.0000000
  2153.9900        1.5888000        1.5888000       0.98642194E-01   0.54502539      -0.58115000       0.96575000        1.0000000        0.0000000
  2154.0900        1.5366400       0.72651494       0.98625964E-01   0.54505164      -0.42980000       0.98325000        1.0000000        1.8148475
  2154.1900        1.5028400       0.73069666       0.98609733E-01   0.54507789      -0.38450000       0.41800000        1.0000000        1.7297606
  2154.2900        1.4597400       0.73481215       0.98593503E-01   0.54510414      -0.34620000       0.69350000        1.0000000        1.6239882
  2154.3900        1.4336000       0.73886176       0.98577273E-01   0.54513039      -0.24580000       0.73300000        1.0000000        1.5563572
  2154.4900        1.4105800       0.74284586       0.98561042E-01   0.54515664      -0.19960000       0.33875000        1.0000000        1.4958624
  2154.5900        1.3936800       0.74676483       0.98544812E-01   0.54518289      -0.17805000       0.10675000        1.0000000        1.4492236
  2154.6900        1.3749700       0.75061903       0.98528581E-01   0.54520914      -0.17825000       0.11250000E-01    1.0000000        1.3986752
  2154.7900        1.3580300       0.75440883       0.98512351E-01   0.54523539      -0.17580000       0.14050000        1.0000000        1.3522361
  2154.8900        1.3398100       0.75813459       0.98496120E-01   0.54526165      -0.15015000      -0.68750000E-01    1.0000000        1.3030731
  2154.9900        1.3280000       0.76179669       0.98479890E-01   0.54528790      -0.18955000      -0.49450000        1.0000000        1.2684124
  2155.0900        1.3019000       0.76539549       0.98463660E-01   0.54531415      -0.24905000      -0.38175000        1.0000000        1.2018810
  2155.1900        1.2781900       0.76893135       0.98447429E-01   0.54534040      -0.26590000      -0.92750000E-01    1.0000000        1.1408446
  2155.2900        1.2487200       0.77240466       0.98431199E-01   0.54536665      -0.26760000       0.26075000        1.0000000        1.0670448
  2155.3900        1.2246700       0.77581577       0.98414968E-01   0.54539290      -0.21375000       0.27150000        1.0000000        1.0055262
  2155.4900        1.2059700       0.77916505       0.98398738E-01   0.54541915      -0.21330000      -0.53500000        1.0000000       0.95613127
  2155.5900        1.1820100       0.78245287       0.98382507E-01   0.54544540      -0.32075000      -0.61450000        1.0000000       0.89509053
  2155.6900        1.1418200       0.78567960       0.98366277E-01   0.54547165      -0.33620000       0.20325000        1.0000000       0.79782808
  2155.7900        1.1147700       0.78884560       0.98350046E-01   0.54549790      -0.28010000       0.23125000        1.0000000       0.73013800
  2155.8900        1.0858000       0.79195124       0.98333816E-01   0.54552415      -0.28995000      -0.15250000E-01    1.0000000       0.65828192
  2155.9900        1.0567800       0.79499690       0.98317586E-01   0.54555040      -0.28315000      -0.53225000E-01    1.0000000       0.58644823
  2156.0900        1.0291700       0.79798293       0.98301355E-01   0.54557665      -0.30059500      -0.10675000        1.0000000       0.51790679
  2156.1900       0.99666100       0.80090971       0.98285125E-01   0.54560290      -0.30450000       0.15017500        1.0000000       0.43852332
  2156.2900       0.96827000       0.80377761       0.98268894E-01   0.54562915      -0.27056000       0.19185000        1.0000000       0.36849694
  2156.3900       0.94254900       0.80658698       0.98252664E-01   0.54565540      -0.26613000      -0.24600000E-01    1.0000000       0.30458301
  2156.4900       0.91504400       0.80933821       0.98236433E-01   0.54568165      -0.27548000       0.74875000E-01    1.0000000       0.23680282
  2156.5900       0.88745300       0.81203165       0.98220203E-01   0.54570791      -0.25115500       0.27795000        1.0000000       0.16895942
  2156.6900       0.86481300       0.81466767       0.98203973E-01   0.54573416      -0.21989000       0.14627500        1.0000000       0.11233590
  2156.7900       0.84347500       0.81724664       0.98187742E-01   0.54576041      -0.22190000      -0.33050000E-01    1.0000000       0.58756935E-01
  2156.8900       0.82043300       0.81976894       0.98171512E-01   0.54578666      -0.22650000       0.21335000        1.0000000       0.14876320E-02
  2156.9900       0.79817500       0.82223492       0.98155281E-01   0.54581291      -0.17923000       0.32817500        1.0000000      -0.53899196E-01
  2157.0900       0.78458700       0.82464496       0.98139051E-01   0.54583916      -0.16086500       0.17622500        1.0000000      -0.89738105E-01
  2157.1900       0.76600200       0.82699942       0.98122820E-01   0.54586541      -0.14398500       0.26347500        1.0000000      -0.13664682
  2157.2900       0.75579000       0.82929867       0.98106590E-01   0.54589166      -0.10817000       0.76400000E-01    1.0000000      -0.16467461
  2157.3900       0.74436800       0.83154308       0.98090360E-01   0.54591791      -0.12870500      -0.75325000E-01    1.0000000      -0.19529018
  2157.4900       0.73004900       0.83373301       0.98074129E-01   0.54594416      -0.12323500       0.11565000        1.0000000      -0.23227360
  2157.5900       0.71972100       0.83586884       0.98057899E-01   0.54597041      -0.10557500       0.11282500        1.0000000      -0.26019515
  2157.6900       0.70893400       0.83795092       0.98041668E-01   0.54599666      -0.10067000       0.11352500        1.0000000      -0.28902456
  2157.7900       0.69958700       0.83997964       0.98025438E-01   0.54602291      -0.82870000E-01   0.46275000E-01    1.0000000      -0.31450852
  2157.8900       0.69236000       0.84195535       0.98009207E-01   0.54604916      -0.91415000E-01  -0.32500000E-01    1.0000000      -0.33512450
  2157.9900       0.68130400       0.84387843       0.97992977E-01   0.54607541      -0.89370000E-01   0.13312500        1.0000000      -0.36420031
  2158.0900       0.67448600       0.84574924       0.97976747E-01   0.54610166      -0.64790000E-01   0.21062500        1.0000000      -0.38366503
  2158.1900       0.66834600       0.84756814       0.97960516E-01   0.54612791      -0.47245000E-01  -0.33875000E-01    1.0000000      -0.40149463
  2158.2900       0.66503700       0.84933552       0.97944286E-01   0.54615417      -0.71565000E-01   0.25750000E-02    1.0000000      -0.41286675
  2158.3900       0.65403300       0.85105173       0.97928055E-01   0.54618042      -0.46730000E-01   0.20580000        1.0000000      -0.44136265
  2158.4900       0.65569100       0.85271714       0.97911825E-01   0.54620667      -0.30405000E-01  -0.70500000E-02    1.0000000      -0.44137925
  2158.5900       0.64795200       0.85433212       0.97895594E-01   0.54623292      -0.48140000E-01   0.72100000E-01    1.0000000      -0.46233410
  2158.6900       0.64606300       0.85589703       0.97879364E-01   0.54625917      -0.15985000E-01   0.23145000        1.0000000      -0.47007159
  2158.7900       0.64475500       0.85741226       0.97863133E-01   0.54628542      -0.18500000E-02   0.12747500        1.0000000      -0.47639619
  2158.8900       0.64569300       0.85887816       0.97846903E-01   0.54631167       0.95100000E-02  -0.48600000E-01    1.0000000      -0.47757879
  2158.9900       0.64665700       0.86029509       0.97830673E-01   0.54633792      -0.11570000E-01  -0.28125000E-01    1.0000000      -0.47859346
  2159.0900       0.64337900       0.86166344       0.97814442E-01   0.54636417       0.38850000E-02   0.20172500        1.0000000      -0.48900224
  2159.1900       0.64743400       0.86298356       0.97798212E-01   0.54639042       0.28775000E-01   0.87075000E-01    1.0000000      -0.48287555
  2159.2900       0.64913400       0.86425582       0.97781981E-01   0.54641667       0.21300000E-01   0.15950000E-01    1.0000000      -0.48191733
  2159.3900       0.65169400       0.86548060       0.97765751E-01   0.54644292       0.31965000E-01   0.50150000E-01    1.0000000      -0.47892616
  2159.4900       0.65552700       0.86665826       0.97749520E-01   0.54646917       0.31330000E-01  -0.88925000E-01    1.0000000      -0.47297763
  2159.5900       0.65796000       0.86778916       0.97733290E-01   0.54649542       0.14180000E-01   0.21750000E-02    1.0000000      -0.47006067
  2159.6900       0.65836300       0.86887368       0.97717060E-01   0.54652167       0.31765000E-01   0.29162500        1.0000000      -0.47158741
  2159.7900       0.66431300       0.86991217       0.97700829E-01   0.54654792       0.72505000E-01   0.64750000E-01    1.0000000      -0.46058463
  2159.8900       0.67286400       0.87090502       0.97684599E-01   0.54657417       0.44715000E-01  -0.25300000        1.0000000      -0.44365281
  2159.9900       0.67325600       0.87185259       0.97668368E-01   0.54660042       0.21905000E-01  -0.23325000E-01    1.0000000      -0.44489739
  2160.0900       0.67724500       0.87275524       0.97652138E-01   0.54662668       0.40050000E-01   0.85375000E-01    1.0000000      -0.43798333
  2160.1900       0.68126600       0.87361334       0.97635907E-01   0.54665293       0.38980000E-01  -0.43500000E-02    1.0000000      -0.43089779
  2160.2900       0.68504100       0.87442727       0.97619677E-01   0.54667918       0.39180000E-01   0.63025000E-01    1.0000000      -0.42426437
  2160.3900       0.68910200       0.87519738       0.97603447E-01   0.54670543       0.51585000E-01   0.25491667E-01    1.0000000      -0.41689210
  2160.4900       0.69535800       0.87592405       0.97587216E-01   0.54673168       0.44278333E-01   0.58250000E-02    1.0000000      -0.40450525
  2160.9900       0.71566900       0.87891859       0.97506064E-01   0.54686293       0.55080000E-01   0.31231667E-01    1.0000000      -0.36571281
  2161.4900       0.75043800       0.88088218       0.97424912E-01   0.54699418       0.75510000E-01   0.18759000E-01    1.0000000      -0.29222191
  2161.9900       0.79117900       0.88186077       0.97343760E-01   0.54712544       0.73839000E-01  -0.20113000E-01    1.0000000      -0.20314591
  2162.4900       0.82427700       0.88190033       0.97262607E-01   0.54725669       0.55397000E-01  -0.62162000E-01    1.0000000      -0.12908817
  2162.9900       0.84657600       0.88104681       0.97181455E-01   0.54738794       0.11677000E-01  -0.69947000E-01    1.0000000      -0.77221738E-01
  2163.4900       0.83595400       0.87934617       0.97100303E-01   0.54751920      -0.14550000E-01  -0.17529000E-01    1.0000000      -0.97207432E-01
  2163.9900       0.83202600       0.87684438       0.97019151E-01   0.54765045      -0.58520000E-02   0.25340000E-01    1.0000000      -0.10040242
  2164.4900       0.83010200       0.87358738       0.96937999E-01   0.54778170       0.10790000E-01   0.34826000E-01    1.0000000      -0.97416236E-01
  2164.9900       0.84281600       0.86962114       0.96856847E-01   0.54791295       0.28974000E-01   0.19187000E-01    1.0000000      -0.60049062E-01
  2165.4900       0.85907600       0.86499163       0.96775694E-01   0.54804421       0.29977000E-01  -0.29900000E-03    1.0000000      -0.13252229E-01
  2165.9900       0.87279300       0.85974479       0.96694542E-01   0.54817546       0.28675000E-01  -0.75880000E-02    1.0000000       0.29230687E-01
  2166.4900       0.88775100       0.85392659       0.96613390E-01   0.54830671       0.22389000E-01  -0.33850000E-02    1.0000000       0.75773669E-01
  2166.9900       0.89518200       0.84758299       0.96532238E-01   0.54843797       0.25290000E-01   0.95070000E-02    1.0000000       0.10663163
  2167.4900       0.91304100       0.84075994       0.96451086E-01   0.54856922       0.31896000E-01  -0.26400000E-02    1.0000000       0.16192451
  2167.9900       0.92707800       0.83350341       0.96369934E-01   0.54870047       0.22650000E-01  -0.22416000E-01    1.0000000       0.20962642
  2168.4900       0.93569100       0.82585935       0.96288781E-01   0.54883172       0.94800000E-02  -0.19311000E-01    1.0000000       0.24604559
  2168.9900       0.93655800       0.81787373       0.96207629E-01   0.54896298       0.33390000E-02  -0.11284000E-01    1.0000000       0.26587729
  2169.4900       0.93903000       0.80959250       0.96126477E-01   0.54909423      -0.18040000E-02  -0.20075000E-01    1.0000000       0.28996675
  2169.9900       0.93475400       0.80106162       0.96045325E-01   0.54922548      -0.16736000E-01  -0.33674000E-01    1.0000000       0.29949856
  2170.4900       0.92229400       0.79232705       0.95964173E-01   0.54935674      -0.35478000E-01  -0.17720000E-01    1.0000000       0.29115281
  2170.9900       0.89927600       0.78343476       0.95883021E-01   0.54948799      -0.34456000E-01   0.54300000E-02    1.0000000       0.25950831
  2171.4900       0.88783800       0.77443069       0.95801868E-01   0.54961924      -0.30048000E-01   0.38500000E-03    1.0000000       0.25405579
  2171.9900       0.86922800       0.76536082       0.95720716E-01   0.54975050      -0.34071000E-01  -0.85160000E-02    1.0000000       0.23268394
  2172.4900       0.85376700       0.75627109       0.95639564E-01   0.54988175      -0.38564000E-01  -0.61210000E-02    1.0000000       0.21841097
  2172.9900       0.83066400       0.74720748       0.95558412E-01   0.55001300      -0.40192000E-01  -0.26860000E-02    1.0000000       0.18695985
  2173.4900       0.81357500       0.73821593       0.95477260E-01   0.55014425      -0.41250000E-01  -0.90990000E-02    1.0000000       0.16881989
  2173.9900       0.78941400       0.72934240       0.95396108E-01   0.55027551      -0.49291000E-01  -0.64060000E-02    1.0000000       0.13457279
  2174.4900       0.76428400       0.72063286       0.95314955E-01   0.55040676      -0.47656000E-01  -0.21300000E-02    1.0000000       0.97787561E-01
  2174.9900       0.74175800       0.71213323       0.95233803E-01   0.55053801      -0.51421000E-01   0.10005000E-01    1.0000000       0.66365607E-01
  2175.4900       0.71286300       0.70387642       0.95152651E-01   0.55066927      -0.37651000E-01   0.20375000E-01    1.0000000       0.20131803E-01
  2175.9900       0.70410700       0.69586420       0.95071499E-01   0.55080052      -0.31046000E-01  -0.70470000E-02    1.0000000       0.18465564E-01
  2176.4900       0.68181700       0.68809380       0.94990347E-01   0.55093177      -0.44698000E-01  -0.71910000E-02    1.0000000      -0.14061333E-01
  2176.9900       0.65940900       0.68056242       0.94909195E-01   0.55106302      -0.38237000E-01   0.11769000E-01    1.0000000      -0.47388023E-01
  2177.4900       0.64358000       0.67326726       0.94828042E-01   0.55119428      -0.32929000E-01   0.82150000E-02    1.0000000      -0.66505588E-01
  2177.9900       0.62648000       0.66620553       0.94746890E-01   0.55132553      -0.30022000E-01   0.11053000E-01    1.0000000      -0.88993397E-01
  2178.4900       0.61355800       0.65937445       0.94665738E-01   0.55145678      -0.21876000E-01   0.81340000E-02    1.0000000      -0.10263831
  2178.9900       0.60460400       0.65277122       0.94584586E-01   0.55158804      -0.21888000E-01   0.87800000E-03    1.0000000      -0.10790452
  2179.4900       0.59167000       0.64639305       0.94503434E-01   0.55171929      -0.20998000E-01   0.88620000E-02    1.0000000      -0.12259093
  2179.9900       0.58360600       0.64023714       0.94422282E-01   0.55185054      -0.13026000E-01   0.94410000E-02    1.0000000      -0.12686546
  2180.4900       0.57864400       0.63430071       0.94341129E-01   0.55198179      -0.11557000E-01  -0.24220000E-02    1.0000000      -0.12468254
  2180.9900       0.57204900       0.62858097       0.94259977E-01   0.55211305      -0.15448000E-01   0.65900000E-03    1.0000000      -0.12664329
  2181.4900       0.56319600       0.62307512       0.94178825E-01   0.55224430      -0.10898000E-01   0.92270000E-02    1.0000000      -0.13414160
  2181.9900       0.56115100       0.61778037       0.94097673E-01   0.55237555      -0.62210000E-02   0.52840000E-02    1.0000000      -0.12686150
  2182.4900       0.55697500       0.61269394       0.94016521E-01   0.55250681      -0.56140000E-02   0.58100000E-02    1.0000000      -0.12482193
  2182.9900       0.55553700       0.60781302       0.93935369E-01   0.55263806      -0.41100000E-03   0.52400000E-02    1.0000000      -0.11710908
  2183.4900       0.55656400       0.60313483       0.93854216E-01   0.55276931      -0.37400000E-03  -0.38590000E-02    1.0000000      -0.10432827
  2183.9900       0.55516300       0.59865657       0.93773064E-01   0.55290057      -0.42700000E-02   0.22460000E-02    1.0000000      -0.97434582E-01
  2184.4900       0.55229400       0.59437546       0.93691912E-01   0.55303182       0.18720000E-02   0.55570000E-02    1.0000000      -0.94271159E-01
  2184.9900       0.55703500       0.59028870       0.93610760E-01   0.55316307       0.12870000E-02  -0.36850000E-02    1.0000000      -0.74495153E-01
  2185.4900       0.55358100       0.58639350       0.93529608E-01   0.55329432      -0.18130000E-02  -0.75300000E-03    1.0000000      -0.73506775E-01
  2185.9900       0.55522200       0.58268707       0.93448456E-01   0.55342558       0.53400000E-03   0.28850000E-02    1.0000000      -0.61527427E-01
  2186.4900       0.55411500       0.57916662       0.93367303E-01   0.55355683       0.10720000E-02   0.48500000E-03    1.0000000      -0.56120794E-01
  2186.9900       0.55629400       0.57582935       0.93286151E-01   0.55368808       0.10190000E-02  -0.33440000E-02    1.0000000      -0.43763218E-01
  2187.4900       0.55513400       0.57267248       0.93204999E-01   0.55381934      -0.22720000E-02  -0.39220000E-02    1.0000000      -0.39289812E-01
  2187.9900       0.55402200       0.56969321       0.93123847E-01   0.55395059      -0.29030000E-02  -0.29360000E-02    1.0000000      -0.35106743E-01
  2188.4900       0.55223100       0.56688875       0.93042695E-01   0.55408184      -0.52080000E-02   0.68600000E-03    1.0000000      -0.32836388E-01
  2188.9900       0.54881400       0.56425631       0.92961543E-01   0.55421309      -0.22170000E-02   0.54500000E-02    1.0000000      -0.34593969E-01
  2189.4900       0.55001400       0.56179310       0.92880390E-01   0.55434435       0.24200000E-03   0.32990000E-02    1.0000000      -0.26387623E-01
  2189.9900       0.54905600       0.55949633       0.92799238E-01   0.55447560       0.10820000E-02   0.27480000E-02    1.0000000      -0.23388494E-01
  2190.4900       0.55109600       0.55736320       0.92718086E-01   0.55460685       0.29900000E-02  -0.22430000E-02    1.0000000      -0.14039825E-01
  2190.9900       0.55204600       0.55539093       0.92636934E-01   0.55473811      -0.11610000E-02  -0.43370000E-02    1.0000000      -0.74933260E-02
  2191.4900       0.54993500       0.55357671       0.92555782E-01   0.55486936      -0.13470000E-02  -0.65300000E-03    1.0000000      -0.81581908E-02
  2191.9900       0.55069900       0.55191777       0.92474630E-01   0.55500061      -0.18140000E-02  -0.18090000E-02    1.0000000      -0.27302994E-02
  2192.4900       0.54812100       0.55041131       0.92393477E-01   0.55513187      -0.31560000E-02   0.38210000E-02    1.0000000      -0.51307624E-02
  2192.9900       0.54754300       0.54905453       0.92312325E-01   0.55526312       0.20070000E-02   0.91340000E-02    1.0000000      -0.33861424E-02
  2193.4900       0.55012800       0.54784465       0.92231173E-01   0.55539437       0.59780000E-02   0.10460000E-02    1.0000000       0.51151744E-02
  2193.9900       0.55352100       0.54677887       0.92150021E-01   0.55552562       0.30530000E-02  -0.75670000E-02    1.0000000       0.15103755E-01
  2194.4900       0.55318100       0.54585441       0.92068869E-01   0.55565688      -0.15890000E-02  -0.23460000E-02    1.0000000       0.16413076E-01
  2194.9900       0.55193200       0.54506847       0.91987717E-01   0.55578813       0.70700000E-03   0.53180000E-02    1.0000000       0.15375733E-01
  2195.4900       0.55388800       0.54441825       0.91906564E-01   0.55591938       0.37290000E-02   0.31390000E-02    1.0000000       0.21214190E-01
  2195.9900       0.55566100       0.54390098       0.91825412E-01   0.55605064       0.38460000E-02  -0.26290000E-02    1.0000000       0.26344882E-01
  2196.4900       0.55773400       0.54351385       0.91744260E-01   0.55618189       0.11000000E-02  -0.54470000E-02    1.0000000       0.31856081E-01
  2196.9900       0.55676100       0.54325407       0.91663108E-01   0.55631314      -0.16010000E-02   0.12110000E-02    1.0000000       0.30258310E-01
  2197.4900       0.55613300       0.54311886       0.91581956E-01   0.55644439       0.23110000E-02   0.35480000E-02    1.0000000       0.29154363E-01
  2197.9900       0.55907200       0.54310542       0.91500804E-01   0.55657565       0.19470000E-02  -0.73300000E-03    1.0000000       0.35768439E-01
  2198.4900       0.55808000       0.54321096       0.91419651E-01   0.55670690       0.15780000E-02   0.29700000E-02    1.0000000       0.33309724E-01
  2198.9900       0.56065000       0.54343269       0.91338499E-01   0.55683815       0.49170000E-02  -0.14360000E-02    1.0000000       0.38570339E-01
  2199.4900       0.56299700       0.54376781       0.91257347E-01   0.55696941       0.14200000E-03  -0.57000000E-02    1.0000000       0.43077356E-01
  2199.9900       0.56079200       0.54421354       0.91176195E-01   0.55710066      -0.78300000E-03  -0.19960000E-02    1.0000000       0.37139173E-01
  2200.4900       0.56221400       0.54476708       0.91095043E-01   0.55723191      -0.18540000E-02  -0.71033333E-03    1.0000000       0.39084695E-01
  2201.4900       0.55801100       0.54618645       0.90932738E-01   0.55749442      -0.18485000E-02   0.19182500E-02    1.0000000       0.26489443E-01
  2202.4900       0.55851700       0.54800356       0.90770434E-01   0.55775692       0.19825000E-02   0.12585000E-02    1.0000000       0.23552268E-01
  2203.4900       0.56197600       0.55019611       0.90608130E-01   0.55801943       0.66850000E-03  -0.17615000E-02    1.0000000       0.26389398E-01
  2204.4900       0.55985400       0.55274174       0.90445825E-01   0.55828194      -0.15405000E-02  -0.49475000E-03    1.0000000       0.15932939E-01
  2205.4900       0.55889500       0.55561813       0.90283521E-01   0.55854444      -0.32100000E-03   0.16772500E-02    1.0000000       0.73408727E-02
  2206.4900       0.55921200       0.55880294       0.90121217E-01   0.55880695       0.18140000E-02   0.52875000E-03    1.0000000       0.91637311E-03
  2207.4900       0.56252300       0.56227385       0.89958912E-01   0.55906945       0.73650000E-03  -0.17825000E-03    1.0000000       0.55814447E-03
  2208.4900       0.56068500       0.56600852       0.89796608E-01   0.55933196       0.14575000E-02   0.24322500E-02    1.0000000      -0.11925786E-01
  2209.4900       0.56543800       0.56998462       0.89634304E-01   0.55959446       0.56010000E-02   0.50975000E-03    1.0000000      -0.10185364E-01
  2210.4900       0.57188700       0.57417981       0.89471999E-01   0.55985697       0.24770000E-02  -0.22567500E-02    1.0000000      -0.51363696E-02
  2211.4900       0.57039200       0.57857177       0.89309695E-01   0.56011948       0.10875000E-02   0.17112500E-02    1.0000000      -0.18324366E-01
  2212.4900       0.57406200       0.58313815       0.89147391E-01   0.56038198       0.58995000E-02   0.30182500E-02    1.0000000      -0.20332456E-01
  2213.4900       0.58219100       0.58785664       0.88985086E-01   0.56064449       0.71240000E-02   0.63850000E-03    1.0000000      -0.12692195E-01
  2214.4900       0.58831000       0.59270488       0.88822782E-01   0.56090699       0.71765000E-02  -0.10525000E-03    1.0000000      -0.98454502E-02
  2215.4900       0.59654400       0.59766057       0.88660478E-01   0.56116950       0.69135000E-02  -0.69500000E-03    1.0000000      -0.25013397E-02
  2216.4900       0.60213700       0.60270135       0.88498173E-01   0.56143201       0.57865000E-02   0.14725000E-03    1.0000000      -0.12642567E-02
  2217.4900       0.60811700       0.60780490       0.88335869E-01   0.56169451       0.72080000E-02   0.78075000E-03    1.0000000       0.69917394E-03
  2218.4900       0.61655300       0.61294888       0.88173565E-01   0.56195702       0.73480000E-02   0.67625000E-03    1.0000000       0.80739692E-02
  2219.4900       0.62281300       0.61811097       0.88011260E-01   0.56221952       0.85605000E-02  -0.93125000E-03    1.0000000       0.10533522E-01
  2220.4900       0.63367400       0.62326883       0.87848956E-01   0.56248203       0.54855000E-02  -0.24150000E-02    1.0000000       0.23309741E-01
  2221.4900       0.63378400       0.62840012       0.87686652E-01   0.56274454       0.37305000E-02   0.12055000E-02    1.0000000       0.12061005E-01
  2222.4900       0.64113500       0.63348252       0.87524347E-01   0.56300704       0.78965000E-02   0.13602500E-02    1.0000000       0.17143140E-01
  2223.4900       0.64957700       0.63849369       0.87362043E-01   0.56326955       0.64510000E-02  -0.31160000E-02    1.0000000       0.24828906E-01
  2224.4900       0.65403700       0.64341130       0.87199739E-01   0.56353205       0.16645000E-02  -0.32522500E-02    1.0000000       0.23803764E-01
  2225.4900       0.65290600       0.64821302       0.87037434E-01   0.56379456      -0.53500000E-04  -0.29325000E-03    1.0000000       0.10513250E-01
  2226.4900       0.65393000       0.65287651       0.86875130E-01   0.56405706       0.10780000E-02   0.13582500E-02    1.0000000       0.23600349E-02
  2227.4900       0.65506200       0.65737944       0.86712826E-01   0.56431957       0.26630000E-02   0.37400000E-03    1.0000000      -0.51915547E-02
  2228.4900       0.65925600       0.66169949       0.86550521E-01   0.56458208       0.18260000E-02   0.21725000E-03    1.0000000      -0.54739191E-02
  2229.4900       0.65871400       0.66581431       0.86388217E-01   0.56484458       0.30975000E-02   0.17630000E-02    1.0000000      -0.15906160E-01
  2230.4900       0.66545100       0.66970157       0.86225913E-01   0.56510709       0.53520000E-02  -0.61750000E-03    1.0000000      -0.95221652E-02
  2231.4900       0.66941800       0.67333895       0.86063608E-01   0.56536959       0.18625000E-02  -0.22470000E-02    1.0000000      -0.87837416E-02
  2232.4900       0.66917600       0.67670411       0.85901304E-01   0.56563210       0.85800000E-03   0.82000000E-03    1.0000000      -0.16864517E-01
  2233.4900       0.67113400       0.67977471       0.85739000E-01   0.56589461       0.35025000E-02   0.26245000E-02    1.0000000      -0.19356977E-01
  2234.4900       0.67618100       0.68252843       0.85576696E-01   0.56615711       0.61070000E-02   0.46775000E-03    1.0000000      -0.14219550E-01
  2235.4900       0.68334800       0.68494293       0.85414391E-01   0.56641962       0.44380000E-02  -0.23950000E-02    1.0000000      -0.35729650E-02
  2236.4900       0.68505700       0.68699587       0.85252087E-01   0.56668212       0.13170000E-02  -0.15222500E-02    1.0000000      -0.43434790E-02
  2237.4900       0.68598200       0.68866494       0.85089783E-01   0.56694463       0.13935000E-02   0.27250000E-03    1.0000000      -0.60103366E-02
  2238.4900       0.68784400       0.68992779       0.84927478E-01   0.56720713       0.18620000E-02   0.46850000E-03    1.0000000      -0.46681127E-02
