# XDI/1.0 Athena/0.9.26
# Element.edge:                  K
# Element.symbol:                P
# Column.1:                      energy eV
# Column.2:                      xmu
# Column.3:                      bkg
# Column.4:                      pre_edge
# Column.5:                      post_edge
# Column.6:                      der
# Column.7:                      sec
# Column.8:                      i0
# Column.9:                      chi(e)
# Athena.e0:                     2154
# Athena.eshift:                 0.49
# Athena.rbkg:                   1.0
# Athena.importance:             1
# Athena.standard:               None
# Athena.bkg_kweight:            2
# Athena.edge_step:              0.5204995
# Athena.fixed_step:             no
# Athena.pre_edge_range:         -25 -10
# Athena.pre_edge_line:          -0.189958 + 0.000125671 * E
# Athena.normalization_range:    35 62
# Athena.post_edge_polynomial:   1.156272 - 0.000257676 * E + 0 * E^2 + 0 * E^3
# Athena.spline_range_energy:    0.000 85.601
# Athena.clamps:                 0 24
# Athena.spline_range_k:         0.000 4.740
# Athena.kweight:                2
# Athena.window:                 hanning
# Athena.phase_correction:       no
# Athena.k_range:                2.740 3.000
# Athena.dk:                     1
# Athena.r_range:                1 3
# Athena.dr:                     0.0
# Athena.window:                 hanning
# Athena.plot_multiplier:        1
# Athena.y_offset:               0
# ///
#------------------------
#   e         xmu        bkg        pre_edge        post_edge        der        sec        i0        chie
  2125.4900       0.85526300E-01   0.85526300E-01   0.77155126E-01   0.60858382      -0.60145000E-03  -0.19338750E-03    1.0000000        0.0000000
  2127.4900       0.84323400E-01   0.84323400E-01   0.77406469E-01   0.60806847      -0.98822500E-03  -0.14008125E-03    1.0000000        0.0000000
  2129.4900       0.81573400E-01   0.81573400E-01   0.77657811E-01   0.60755312      -0.11617750E-02   0.51437500E-04    1.0000000        0.0000000
  2131.4900       0.79676300E-01   0.79676300E-01   0.77909154E-01   0.60703777      -0.78247500E-03   0.13431250E-03    1.0000000        0.0000000
  2133.4900       0.78443500E-01   0.78443500E-01   0.78160496E-01   0.60652241      -0.62452500E-03   0.58656250E-04    1.0000000        0.0000000
  2135.4900       0.77178200E-01   0.77178200E-01   0.78411839E-01   0.60600706      -0.54785000E-03   0.13506250E-03    1.0000000        0.0000000
  2137.4900       0.76252100E-01   0.76252100E-01   0.78663181E-01   0.60549171      -0.84275000E-04   0.26339583E-03    1.0000000        0.0000000
  2139.4900       0.76841100E-01   0.76841100E-01   0.78914523E-01   0.60497636       0.50573333E-03   0.20284924E-03    1.0000000        0.0000000
  2140.4900       0.77769300E-01   0.77769300E-01   0.79040195E-01   0.60471868       0.52427273E-03  -0.36065758E-02    1.0000000        0.0000000
  2140.5900       0.77417800E-01   0.77417800E-01   0.79052762E-01   0.60469291      -0.34615000E-02   0.15186364E-02    1.0000000        0.0000000
  2140.6900       0.77077000E-01   0.77077000E-01   0.79065329E-01   0.60466715       0.82800000E-03   0.22020000E-01    1.0000000        0.0000000
  2140.7900       0.77583400E-01   0.77583400E-01   0.79077896E-01   0.60464138       0.94250000E-03   0.13515000E-01    1.0000000        0.0000000
  2140.8900       0.77265500E-01   0.77265500E-01   0.79090463E-01   0.60461561       0.35310000E-02   0.20047500E-01    1.0000000        0.0000000
  2140.9900       0.78289600E-01   0.78289600E-01   0.79103030E-01   0.60458984       0.49520000E-02  -0.17072500E-01    1.0000000        0.0000000
  2141.0900       0.78255900E-01   0.78255900E-01   0.79115597E-01   0.60456408       0.11650000E-03  -0.30610000E-01    1.0000000        0.0000000
  2141.1900       0.78312900E-01   0.78312900E-01   0.79128165E-01   0.60453831      -0.11700000E-02  -0.19142500E-01    1.0000000        0.0000000
  2141.2900       0.78021900E-01   0.78021900E-01   0.79140732E-01   0.60451254      -0.37120000E-02   0.17415000E-01    1.0000000        0.0000000
  2141.3900       0.77570500E-01   0.77570500E-01   0.79153299E-01   0.60448677       0.23130000E-02   0.19025000E-01    1.0000000        0.0000000
  2141.4900       0.78484500E-01   0.78484500E-01   0.79165866E-01   0.60446101       0.93000000E-04  -0.99350000E-02    1.0000000        0.0000000
  2141.5900       0.77589100E-01   0.77589100E-01   0.79178433E-01   0.60443524       0.32600000E-03   0.12327500E-01    1.0000000        0.0000000
  2141.6900       0.78549700E-01   0.78549700E-01   0.79191000E-01   0.60440947       0.25585000E-02   0.24975000E-02    1.0000000        0.0000000
  2141.7900       0.78100800E-01   0.78100800E-01   0.79203567E-01   0.60438370       0.82550000E-03   0.38525000E-02    1.0000000        0.0000000
  2141.8900       0.78714800E-01   0.78714800E-01   0.79216134E-01   0.60435793       0.33290000E-02  -0.19317500E-01    1.0000000        0.0000000
  2141.9900       0.78766600E-01   0.78766600E-01   0.79228702E-01   0.60433217      -0.30380000E-02  -0.21452500E-01    1.0000000        0.0000000
  2142.0900       0.78107200E-01   0.78107200E-01   0.79241269E-01   0.60430640      -0.96150000E-03   0.40772500E-01    1.0000000        0.0000000
  2142.1900       0.78574300E-01   0.78574300E-01   0.79253836E-01   0.60428063       0.51165000E-02   0.42405000E-01    1.0000000        0.0000000
  2142.2900       0.79130500E-01   0.79130500E-01   0.79266403E-01   0.60425486       0.75195000E-02  -0.25440000E-01    1.0000000        0.0000000
  2142.3900       0.80078200E-01   0.80078200E-01   0.79278970E-01   0.60422910       0.28500000E-04  -0.46577500E-01    1.0000000        0.0000000
  2142.4900       0.79136200E-01   0.79136200E-01   0.79291537E-01   0.60420333      -0.17960000E-02   0.13525000E-01    1.0000000        0.0000000
  2142.5900       0.79719000E-01   0.79719000E-01   0.79304104E-01   0.60417756       0.27335000E-02   0.10697500E-01    1.0000000        0.0000000
  2142.6900       0.79682900E-01   0.79682900E-01   0.79316671E-01   0.60415179       0.34350000E-03  -0.39950000E-02    1.0000000        0.0000000
  2142.7900       0.79787700E-01   0.79787700E-01   0.79329239E-01   0.60412603       0.19345000E-02  -0.69500000E-03    1.0000000        0.0000000
  2142.8900       0.80069800E-01   0.80069800E-01   0.79341806E-01   0.60410026       0.20450000E-03   0.60125000E-02    1.0000000        0.0000000
  2142.9900       0.79828600E-01   0.79828600E-01   0.79354373E-01   0.60407449       0.31370000E-02   0.14730000E-01    1.0000000        0.0000000
  2143.0900       0.80697200E-01   0.80697200E-01   0.79366940E-01   0.60404872       0.31505000E-02  -0.45322500E-01    1.0000000        0.0000000
  2143.1900       0.80458700E-01   0.80458700E-01   0.79379507E-01   0.60402296      -0.59275000E-02  -0.14107500E-01    1.0000000        0.0000000
  2143.2900       0.79511700E-01   0.79511700E-01   0.79392074E-01   0.60399719       0.32900000E-03   0.68035000E-01    1.0000000        0.0000000
  2143.3900       0.80524500E-01   0.80524500E-01   0.79404641E-01   0.60397142       0.76795000E-02   0.44507500E-01    1.0000000        0.0000000
  2143.4900       0.81047600E-01   0.81047600E-01   0.79417208E-01   0.60394565       0.92305000E-02  -0.39855000E-01    1.0000000        0.0000000
  2143.5900       0.82370600E-01   0.82370600E-01   0.79429776E-01   0.60391989      -0.29150000E-03  -0.52970000E-01    1.0000000        0.0000000
  2143.6900       0.80989300E-01   0.80989300E-01   0.79442343E-01   0.60389412      -0.13635000E-02   0.35530000E-01    1.0000000        0.0000000
  2143.7900       0.82097900E-01   0.82097900E-01   0.79454910E-01   0.60386835       0.68145000E-02  -0.16047500E-01    1.0000000        0.0000000
  2143.8900       0.82352200E-01   0.82352200E-01   0.79467477E-01   0.60384258      -0.45730000E-02  -0.37820000E-01    1.0000000        0.0000000
  2143.9900       0.81183300E-01   0.81183300E-01   0.79480044E-01   0.60381681      -0.74950000E-03   0.66340000E-01    1.0000000        0.0000000
  2144.0900       0.82202300E-01   0.82202300E-01   0.79492611E-01   0.60379105       0.86950000E-02   0.46150000E-02    1.0000000        0.0000000
  2144.1900       0.82922300E-01   0.82922300E-01   0.79505178E-01   0.60376528       0.17350000E-03  -0.43702500E-01    1.0000000        0.0000000
  2144.2900       0.82237000E-01   0.82237000E-01   0.79517745E-01   0.60373951      -0.45500000E-04   0.47422500E-01    1.0000000        0.0000000
  2144.3900       0.82913200E-01   0.82913200E-01   0.79530312E-01   0.60371374       0.96580000E-02   0.40227500E-01    1.0000000        0.0000000
  2144.4900       0.84168600E-01   0.84168600E-01   0.79542880E-01   0.60368798       0.80000000E-02  -0.36087500E-01    1.0000000        0.0000000
  2144.5900       0.84513200E-01   0.84513200E-01   0.79555447E-01   0.60366221       0.24405000E-02  -0.36580000E-01    1.0000000        0.0000000
  2144.6900       0.84656700E-01   0.84656700E-01   0.79568014E-01   0.60363644       0.68400000E-03  -0.17350000E-01    1.0000000        0.0000000
  2144.7900       0.84650000E-01   0.84650000E-01   0.79580581E-01   0.60361067      -0.10295000E-02   0.19877500E-01    1.0000000        0.0000000
  2144.8900       0.84450800E-01   0.84450800E-01   0.79593148E-01   0.60358491       0.46595000E-02   0.52785000E-01    1.0000000        0.0000000
  2144.9900       0.85581900E-01   0.85581900E-01   0.79605715E-01   0.60355914       0.95275000E-02  -0.13635000E-01    1.0000000        0.0000000
  2145.0900       0.86356300E-01   0.86356300E-01   0.79618282E-01   0.60353337       0.19325000E-02  -0.51437500E-01    1.0000000        0.0000000
  2145.1900       0.85968400E-01   0.85968400E-01   0.79630849E-01   0.60350760      -0.76000000E-03   0.22742500E-01    1.0000000        0.0000000
  2145.2900       0.86204300E-01   0.86204300E-01   0.79643417E-01   0.60348184       0.64810000E-02   0.43052500E-01    1.0000000        0.0000000
  2145.3900       0.87264600E-01   0.87264600E-01   0.79655984E-01   0.60345607       0.78505000E-02  -0.12312500E-01    1.0000000        0.0000000
  2145.4900       0.87774400E-01   0.87774400E-01   0.79668551E-01   0.60343030       0.40185000E-02  -0.23507500E-01    1.0000000        0.0000000
  2145.5900       0.88068300E-01   0.88068300E-01   0.79681118E-01   0.60340453       0.31490000E-02   0.18220000E-01    1.0000000        0.0000000
  2145.6900       0.88404200E-01   0.88404200E-01   0.79693685E-01   0.60337877       0.76625000E-02   0.33235000E-01    1.0000000        0.0000000
  2145.7900       0.89600800E-01   0.89600800E-01   0.79706252E-01   0.60335300       0.97960000E-02  -0.19827500E-01    1.0000000        0.0000000
  2145.8900       0.90363400E-01   0.90363400E-01   0.79718819E-01   0.60332723       0.36970000E-02  -0.66900000E-02    1.0000000        0.0000000
  2145.9900       0.90340200E-01   0.90340200E-01   0.79731386E-01   0.60330146       0.84580000E-02   0.35312500E-01    1.0000000        0.0000000
  2146.0900       0.92055000E-01   0.92055000E-01   0.79743954E-01   0.60327570       0.10759500E-01  -0.47865000E-01    1.0000000        0.0000000
  2146.1900       0.92492100E-01   0.92492100E-01   0.79756521E-01   0.60324993      -0.11150000E-02  -0.23967500E-01    1.0000000        0.0000000
  2146.2900       0.91832000E-01   0.91832000E-01   0.79769088E-01   0.60322416       0.59660000E-02   0.50175000E-01    1.0000000        0.0000000
  2146.3900       0.93685300E-01   0.93685300E-01   0.79781655E-01   0.60319839       0.89200000E-02   0.19457500E-01    1.0000000        0.0000000
  2146.4900       0.93616000E-01   0.93616000E-01   0.79794222E-01   0.60317262       0.98575000E-02   0.16642500E-01    1.0000000        0.0000000
  2146.5900       0.95656800E-01   0.95656800E-01   0.79806789E-01   0.60314686       0.12248500E-01  -0.16752500E-01    1.0000000        0.0000000
  2146.6900       0.96065700E-01   0.96065700E-01   0.79819356E-01   0.60312109       0.65070000E-02  -0.16565000E-01    1.0000000        0.0000000
  2146.7900       0.96958200E-01   0.96958200E-01   0.79831923E-01   0.60309532       0.89355000E-02   0.27985000E-01    1.0000000        0.0000000
  2146.8900       0.97852800E-01   0.97852800E-01   0.79844491E-01   0.60306955       0.12104000E-01   0.10052500E-01    1.0000000        0.0000000
  2146.9900       0.99379000E-01   0.99379000E-01   0.79857058E-01   0.60304379       0.10946000E-01   0.10280000E-01    1.0000000        0.0000000
  2147.0900       0.10004200       0.10004200       0.79869625E-01   0.60301802       0.14160000E-01   0.41700000E-02    1.0000000        0.0000000
  2147.1900       0.10221100       0.10221100       0.79882192E-01   0.60299225       0.11780000E-01  -0.76750000E-02    1.0000000        0.0000000
  2147.2900       0.10239800       0.10239800       0.79894759E-01   0.60296648       0.12625000E-01   0.18475000E-01    1.0000000        0.0000000
  2147.3900       0.10473600       0.10473600       0.79907326E-01   0.60294072       0.15475000E-01   0.25150000E-01    1.0000000        0.0000000
  2147.4900       0.10549300       0.10549300       0.79919893E-01   0.60291495       0.17655000E-01   0.20675000E-01    1.0000000        0.0000000
  2147.5900       0.10826700       0.10826700       0.79932460E-01   0.60288918       0.19610000E-01  -0.33850000E-01    1.0000000        0.0000000
  2147.6900       0.10941500       0.10941500       0.79945028E-01   0.60286341       0.10885000E-01  -0.19300000E-01    1.0000000        0.0000000
  2147.7900       0.11044400       0.11044400       0.79957595E-01   0.60283765       0.15750000E-01   0.81825000E-01    1.0000000        0.0000000
  2147.8900       0.11256500       0.11256500       0.79970162E-01   0.60281188       0.27250000E-01   0.21200000E-01    1.0000000        0.0000000
  2147.9900       0.11589400       0.11589400       0.79982729E-01   0.60278611       0.19990000E-01  -0.25825000E-01    1.0000000        0.0000000
  2148.0900       0.11656300       0.11656300       0.79995296E-01   0.60276034       0.22085000E-01   0.35700000E-01    1.0000000        0.0000000
  2148.1900       0.12031100       0.12031100       0.80007863E-01   0.60273458       0.27130000E-01   0.43250000E-02    1.0000000        0.0000000
  2148.2900       0.12198900       0.12198900       0.80020430E-01   0.60270881       0.22950000E-01  -0.63000000E-02    1.0000000        0.0000000
  2148.3900       0.12490100       0.12490100       0.80032997E-01   0.60268304       0.25870000E-01   0.13375000E-01    1.0000000        0.0000000
  2148.4900       0.12716300       0.12716300       0.80045565E-01   0.60265727       0.25625000E-01   0.35475000E-01    1.0000000        0.0000000
  2148.5900       0.13002600       0.13002600       0.80058132E-01   0.60263150       0.32965000E-01   0.80400000E-01    1.0000000        0.0000000
  2148.6900       0.13375600       0.13375600       0.80070699E-01   0.60260574       0.41705000E-01   0.80025000E-01    1.0000000        0.0000000
  2148.7900       0.13836700       0.13836700       0.80083266E-01   0.60257997       0.48970000E-01   0.33250000E-01    1.0000000        0.0000000
  2148.8900       0.14355000       0.14355000       0.80095833E-01   0.60255420       0.48355000E-01  -0.44475000E-01    1.0000000        0.0000000
  2148.9900       0.14803800       0.14803800       0.80108400E-01   0.60252843       0.40075000E-01   0.11700000E-01    1.0000000        0.0000000
  2149.0900       0.15156500       0.15156500       0.80120967E-01   0.60250267       0.50695000E-01   0.12130000        1.0000000        0.0000000
  2149.1900       0.15817700       0.15817700       0.80133534E-01   0.60247690       0.64335000E-01   0.77400000E-01    1.0000000        0.0000000
  2149.2900       0.16443200       0.16443200       0.80146102E-01   0.60245113       0.66175000E-01   0.10685000        1.0000000        0.0000000
  2149.3900       0.17141200       0.17141200       0.80158669E-01   0.60242536       0.85705000E-01   0.11242500        1.0000000        0.0000000
  2149.4900       0.18157300       0.18157300       0.80171236E-01   0.60239960       0.88660000E-01   0.35925000E-01    1.0000000        0.0000000
  2149.5900       0.18914400       0.18914400       0.80183803E-01   0.60237383       0.92890000E-01   0.17227500        1.0000000        0.0000000
  2149.6900       0.20015100       0.20015100       0.80196370E-01   0.60234806       0.12311500       0.22980000        1.0000000        0.0000000
  2149.7900       0.21376700       0.21376700       0.80208937E-01   0.60232229       0.13885000       0.25490000        1.0000000        0.0000000
  2149.8900       0.22792100       0.22792100       0.80221504E-01   0.60229653       0.17409500       0.35362500        1.0000000        0.0000000
  2149.9900       0.24858600       0.24858600       0.80234071E-01   0.60227076       0.20957500       0.42977500        1.0000000        0.0000000
  2150.0900       0.26983600       0.26983600       0.80246639E-01   0.60224499       0.26005000       0.56615000        1.0000000        0.0000000
  2150.1900       0.30059600       0.30059600       0.80259206E-01   0.60221922       0.32280500       0.63092500        1.0000000        0.0000000
  2150.2900       0.33439700       0.33439700       0.80271773E-01   0.60219346       0.38623500       0.81992500        1.0000000        0.0000000
  2150.3900       0.37784300       0.37784300       0.80284340E-01   0.60216769       0.48679000       0.92200000        1.0000000        0.0000000
  2150.4900       0.43175500       0.43175500       0.80296907E-01   0.60214192       0.57063500       0.92317500        1.0000000        0.0000000
  2150.5900       0.49197000       0.49197000       0.80309474E-01   0.60211615       0.67142500        1.1754000        1.0000000        0.0000000
  2150.6900       0.56604000       0.56604000       0.80322041E-01   0.60209039       0.80571500        1.3514250        1.0000000        0.0000000
  2150.7900       0.65311300       0.65311300       0.80334608E-01   0.60206462       0.94171000        1.2267500        1.0000000        0.0000000
  2150.8900       0.75438200       0.75438200       0.80347176E-01   0.60203885        1.0510650       0.97452500        1.0000000        0.0000000
  2150.9900       0.86332600       0.86332600       0.80359743E-01   0.60201308        1.1366150        1.0590250        1.0000000        0.0000000
  2151.0900       0.98170500       0.98170500       0.80372310E-01   0.60198731        1.2628700        1.6748000        1.0000000        0.0000000
  2151.1900        1.1159000        1.1159000       0.80384877E-01   0.60196155        1.4715750        1.9649000        1.0000000        0.0000000
  2151.2900        1.2760200        1.2760200       0.80397444E-01   0.60193578        1.6558500        2.8631250        1.0000000        0.0000000
  2151.3900        1.4470700        1.4470700       0.80410011E-01   0.60191001        2.0442000        4.0307500        1.0000000        0.0000000
  2151.4900        1.6848600        1.6848600       0.80422578E-01   0.60188424        2.4620000        4.1600000        1.0000000        0.0000000
  2151.5900        1.9394700        1.9394700       0.80435145E-01   0.60185848        2.8762000        4.2757500        1.0000000        0.0000000
  2151.6900        2.2601000        2.2601000       0.80447712E-01   0.60183271        3.3171500        2.7610000        1.0000000        0.0000000
  2151.7900        2.6029000        2.6029000       0.80460280E-01   0.60180694        3.4284000      -0.32150000        1.0000000        0.0000000
  2151.8900        2.9457800        2.9457800       0.80472847E-01   0.60178117        3.2528500       -1.8467500        1.0000000        0.0000000
  2151.9900        3.2534700        3.2534700       0.80485414E-01   0.60175541        3.0590500       -2.6887500        1.0000000        0.0000000
  2152.0900        3.5575900        3.5575900       0.80497981E-01   0.60172964        2.7151000       -4.4780000        1.0000000        0.0000000
  2152.1900        3.7964900        3.7964900       0.80510548E-01   0.60170387        2.1634500       -5.3967500        1.0000000        0.0000000
  2152.2900        3.9902800        3.9902800       0.80523115E-01   0.60167810        1.6357500       -6.0342500        1.0000000        0.0000000
  2152.3900        4.1236400        4.1236400       0.80535682E-01   0.60165234       0.95660000       -5.7845000        1.0000000        0.0000000
  2152.4900        4.1816000        4.1816000       0.80548249E-01   0.60162657       0.47885000       -3.8210000        1.0000000        0.0000000
  2152.5900        4.2194100        4.2194100       0.80560817E-01   0.60160080       0.19240000       -3.7045000        1.0000000        0.0000000
  2152.6900        4.2200800        4.2200800       0.80573384E-01   0.60157503      -0.26205000       -4.8045000        1.0000000        0.0000000
  2152.7900        4.1670000        4.1670000       0.80585951E-01   0.60154927      -0.76850000       -3.8812500        1.0000000        0.0000000
  2152.8900        4.0663800        4.0663800       0.80598518E-01   0.60152350       -1.0383000       -2.5037500        1.0000000        0.0000000
  2152.9900        3.9593400        3.9593400       0.80611085E-01   0.60149773       -1.2692500       -2.9225000        1.0000000        0.0000000
  2153.0900        3.8125300        3.8125300       0.80623652E-01   0.60147196       -1.6228000       -3.0470000        1.0000000        0.0000000
  2153.1900        3.6347800        3.6347800       0.80636219E-01   0.60144619       -1.8786500       -1.6562500        1.0000000        0.0000000
  2153.2900        3.4368000        3.4368000       0.80648786E-01   0.60142043       -1.9540500      -0.71775000        1.0000000        0.0000000
  2153.3900        3.2439700        3.2439700       0.80661354E-01   0.60139466       -2.0222000      -0.76075000        1.0000000        0.0000000
  2153.4900        3.0323600        3.0323600       0.80673921E-01   0.60136889       -2.1062000      -0.69500000E-01    1.0000000        0.0000000
  2153.5900        2.8227300        2.8227300       0.80686488E-01   0.60134312       -2.0361000        1.0447500        1.0000000        0.0000000
  2153.6900        2.6251400        2.6251400       0.80699055E-01   0.60131736       -1.8972500        1.3627500        1.0000000        0.0000000
  2153.7900        2.4432800        2.4432800       0.80711622E-01   0.60129159       -1.7635500        1.0022500        1.0000000        0.0000000
  2153.8900        2.2724300        2.2724300       0.80724189E-01   0.60126582       -1.6968000        1.3490000        1.0000000        0.0000000
  2153.9900        2.1039200        2.1039200       0.80736756E-01   0.60124005       -1.4937500        2.0662500        1.0000000        0.0000000
  2154.0900        1.9736800       0.77081828       0.80749323E-01   0.60121429       -1.2835500        1.9922500        1.0000000        2.3109758
  2154.1900        1.8472100       0.77764216       0.80761891E-01   0.60118852       -1.0953000        1.7197500        1.0000000        2.0548874
  2154.2900        1.7546200       0.78436587       0.80774458E-01   0.60116275      -0.93960000        1.1927500        1.0000000        1.8640827
  2154.3900        1.6592900       0.79098996       0.80787025E-01   0.60113698      -0.85675000        1.3880000        1.0000000        1.6682053
  2154.4900        1.5832700       0.79751497       0.80799592E-01   0.60111122      -0.66200000        1.4917500        1.0000000        1.5096173
  2154.5900        1.5268900       0.80394144       0.80812159E-01   0.60108545      -0.55840000       0.73750000        1.0000000        1.3889515
  2154.6900        1.4715900       0.81026991       0.80824726E-01   0.60105968      -0.51450000       0.31800000        1.0000000        1.2705489
  2154.7900        1.4239900       0.81650093       0.80837293E-01   0.60103391      -0.49480000       0.17525000        1.0000000        1.1671271
  2154.8900        1.3726300       0.82263504       0.80849860E-01   0.60100815      -0.47945000       0.54250000        1.0000000        1.0566676
  2154.9900        1.3281000       0.82867278       0.80862428E-01   0.60098238      -0.38630000       0.87950000        1.0000000       0.95951527
  2155.0900        1.2953700       0.83461470       0.80874995E-01   0.60095661      -0.30355000       0.58375000        1.0000000       0.88521756
  2155.1900        1.2673900       0.84046134       0.80887562E-01   0.60093084      -0.26955000      -0.26250000E-01    1.0000000       0.82022876
  2155.2900        1.2414600       0.84621324       0.80900129E-01   0.60090508      -0.30880000      -0.12425000        1.0000000       0.75936050
  2155.3900        1.2056300       0.85187094       0.80912696E-01   0.60087931      -0.29440000       0.55950000        1.0000000       0.67965302
  2155.4900        1.1825800       0.85743500       0.80925263E-01   0.60085354      -0.19690000       0.71525000        1.0000000       0.62467880
  2155.5900        1.1662500       0.86290594       0.80937830E-01   0.60082777      -0.15135000       0.75750000E-01    1.0000000       0.58279414
  2155.6900        1.1523100       0.86828432       0.80950397E-01   0.60080200      -0.18175000      -0.38675000        1.0000000       0.54567906
  2155.7900        1.1299000       0.87357068       0.80962965E-01   0.60077624      -0.22870000      -0.68000000E-01    1.0000000       0.49246796
  2155.8900        1.1065700       0.87876555       0.80975532E-01   0.60075047      -0.19535000       0.29875000        1.0000000       0.43766507
  2155.9900        1.0908300       0.88386949       0.80988099E-01   0.60072470      -0.16895000       0.31525000        1.0000000       0.39761904
  2156.0900        1.0727800       0.88888304       0.81000666E-01   0.60069893      -0.13230000       0.31450000        1.0000000       0.35330863
  2156.1900        1.0643700       0.89380673       0.81013233E-01   0.60067317      -0.10605000      -0.24500000E-01    1.0000000       0.32769151
  2156.2900        1.0515700       0.89864112       0.81025800E-01   0.60064740      -0.13720000      -0.22175000        1.0000000       0.29381177
  2156.3900        1.0369300       0.90338674       0.81038367E-01   0.60062163      -0.15040000       0.14000000E-01    1.0000000       0.25656751
  2156.4900        1.0214900       0.90804414       0.81050934E-01   0.60059586      -0.13440000       0.10515000        1.0000000       0.21795575
  2156.5900        1.0100500       0.91261387       0.81063502E-01   0.60057010      -0.12937000       0.82550000E-01    1.0000000       0.18719737
  2156.6900       0.99561600       0.91709645       0.81076069E-01   0.60054433      -0.11789000       0.91725000E-01    1.0000000       0.15085422
  2156.7900       0.98647200       0.92149245       0.81088636E-01   0.60051856      -0.11102500       0.13855000        1.0000000       0.12484076
  2156.8900       0.97341100       0.92580239       0.81101203E-01   0.60049279      -0.90180000E-01   0.20225000        1.0000000       0.91467154E-01
  2156.9900       0.96843600       0.93002683       0.81113770E-01   0.60046703      -0.70575000E-01  -0.12075000E-01    1.0000000       0.73792904E-01
  2157.0900       0.95929600       0.93416631       0.81126337E-01   0.60044126      -0.92595000E-01  -0.16925000        1.0000000       0.48279958E-01
  2157.1900       0.94991700       0.93822136       0.81138904E-01   0.60041549      -0.10442500       0.92250000E-02    1.0000000       0.22470030E-01
  2157.2900       0.93841100       0.94219254       0.81151471E-01   0.60038972      -0.90750000E-01   0.25600000E-01    1.0000000      -0.72652101E-02
  2157.3900       0.93176700       0.94608038       0.81164039E-01   0.60036396      -0.99305000E-01  -0.18162500        1.0000000      -0.27499318E-01
  2157.4900       0.91855000       0.94988543       0.81176606E-01   0.60033819      -0.12707500       0.10977500        1.0000000      -0.60202619E-01
  2157.5900       0.90635200       0.95360824       0.81189173E-01   0.60031242      -0.77350000E-01   0.28037500        1.0000000      -0.90790167E-01
  2157.6900       0.90308000       0.95724934       0.81201740E-01   0.60028665      -0.71000000E-01   0.59275000E-01    1.0000000      -0.10407183
  2157.7900       0.89215200       0.96080927       0.81214307E-01   0.60026088      -0.65495000E-01   0.35125000E-01    1.0000000      -0.13190651
  2157.8900       0.88998100       0.96428859       0.81226874E-01   0.60023512      -0.63975000E-01  -0.30282500        1.0000000      -0.14276207
  2157.9900       0.87935700       0.96768783       0.81239441E-01   0.60020935      -0.12606000      -0.25890000        1.0000000      -0.16970396
  2158.0900       0.86476900       0.97100754       0.81252008E-01   0.60018358      -0.11575500       0.20910000        1.0000000      -0.20410881
  2158.1900       0.85620600       0.97424825       0.81264576E-01   0.60015781      -0.84240000E-01   0.23485000        1.0000000      -0.22678649
  2158.2900       0.84792100       0.97741052       0.81277143E-01   0.60013205      -0.68785000E-01   0.17315000        1.0000000      -0.24877934
  2158.3900       0.84244900       0.98049489       0.81289710E-01   0.60010628      -0.49610000E-01   0.20952500        1.0000000      -0.26521810
  2158.4900       0.83799900       0.98350189       0.81302277E-01   0.60008051      -0.26880000E-01   0.14832500        1.0000000      -0.27954473
  2158.5900       0.83707300       0.98643208       0.81314844E-01   0.60005474      -0.19945000E-01  -0.36467500        1.0000000      -0.28695336
  2158.6900       0.83401000       0.98928599       0.81327411E-01   0.60002898      -0.99815000E-01  -0.29255000        1.0000000      -0.29832112
  2158.7900       0.81711000       0.99206417       0.81339978E-01   0.60000321      -0.78455000E-01   0.41942500        1.0000000      -0.33612746
  2158.8900       0.81831900       0.99476716       0.81352545E-01   0.59997744      -0.15930000E-01   0.24060000        1.0000000      -0.33899776
  2158.9900       0.81392400       0.99739551       0.81365112E-01   0.59995167      -0.30335000E-01   0.89400000E-01    1.0000000      -0.35249123
  2159.0900       0.81225200       0.99994975       0.81377680E-01   0.59992591       0.19500000E-02   0.18175000E-01    1.0000000      -0.36061082
  2159.1900       0.81431400        1.0024304       0.81390247E-01   0.59990014      -0.26700000E-01  -0.28097500        1.0000000      -0.36141521
  2159.2900       0.80691200        1.0048381       0.81402814E-01   0.59987437      -0.54245000E-01   0.14155000        1.0000000      -0.38026184
  2159.3900       0.80346500        1.0071733       0.81415381E-01   0.59984860       0.16100000E-02   0.43765000        1.0000000      -0.39137077
  2159.4900       0.80723400        1.0094366       0.81427948E-01   0.59982284       0.33285000E-01  -0.11070000        1.0000000      -0.38847790
  2159.5900       0.81012200        1.0116284       0.81440515E-01   0.59979707      -0.20530000E-01  -0.14952500        1.0000000      -0.38714048
  2159.6900       0.80312800        1.0137495       0.81453082E-01   0.59977130       0.33800000E-02   0.28002500        1.0000000      -0.40465256
  2159.7900       0.81079800        1.0158002       0.81465649E-01   0.59974553       0.35475000E-01  -0.21600000E-01    1.0000000      -0.39385663
  2159.8900       0.81022300        1.0177811       0.81478217E-01   0.59971977      -0.94000000E-03  -0.15792500        1.0000000      -0.39876724
  2159.9900       0.81061000        1.0196929       0.81490784E-01   0.59969400       0.38900000E-02   0.10897500        1.0000000      -0.40169664
  2160.0900       0.81100100        1.0215360       0.81503351E-01   0.59966823       0.20855000E-01   0.21695000        1.0000000      -0.40448642
  2160.1900       0.81478100        1.0233109       0.81515918E-01   0.59964246       0.47280000E-01   0.95875000E-01    1.0000000      -0.40063426
  2160.2900       0.82045700        1.0250183       0.81528485E-01   0.59961669       0.40030000E-01   0.88000000E-02    1.0000000      -0.39300959
  2160.3900       0.82278700        1.0266586       0.81541052E-01   0.59959093       0.49040000E-01  -0.78000000E-02    1.0000000      -0.39168455
  2160.4900       0.83026500        1.0282324       0.81553619E-01   0.59956516       0.38470000E-01  -0.76316667E-02    1.0000000      -0.38034125
  2160.9900       0.84586900        1.0351230       0.81616455E-01   0.59943632       0.44461000E-01   0.10815000E-01    1.0000000      -0.36360078
  2161.4900       0.87472600        1.0404326       0.81679291E-01   0.59930748       0.49285000E-01   0.23810000E-02    1.0000000      -0.31836065
  2161.9900       0.89515400        1.0442289       0.81742126E-01   0.59917865       0.46842000E-01  -0.10756000E-01    1.0000000      -0.28640740
  2162.4900       0.92156800        1.0465800       0.81804962E-01   0.59904981       0.38529000E-01  -0.14164000E-01    1.0000000      -0.24017690
  2162.9900       0.93368300        1.0475536       0.81867797E-01   0.59892097       0.32678000E-01  -0.55260000E-02    1.0000000      -0.21877174
  2163.4900       0.95424600        1.0472177       0.81930633E-01   0.59879213       0.33003000E-01  -0.36420000E-02    1.0000000      -0.17862007
  2163.9900       0.96668600        1.0456401       0.81993469E-01   0.59866329       0.29036000E-01   0.72810000E-02    1.0000000      -0.15168903
  2164.4900       0.98328200        1.0428887       0.82056304E-01   0.59853446       0.40284000E-01   0.20302000E-01    1.0000000      -0.11451822
  2164.9900        1.0069700        1.0390314       0.82119140E-01   0.59840562       0.49338000E-01   0.10766000E-01    1.0000000      -0.61597331E-01
  2165.4900        1.0326200        1.0341360       0.82181976E-01   0.59827678       0.51050000E-01  -0.67480000E-02    1.0000000      -0.29126785E-02
  2165.9900        1.0580200        1.0282706       0.82244811E-01   0.59814794       0.42590000E-01  -0.93000000E-02    1.0000000       0.57155561E-01
  2166.4900        1.0752100        1.0215028       0.82307647E-01   0.59801910       0.41750000E-01  -0.93700000E-02    1.0000000       0.10318397
  2166.9900        1.0997700        1.0139006       0.82370482E-01   0.59789026       0.33220000E-01  -0.14740000E-01    1.0000000       0.16497494
  2167.4900        1.1084300        1.0055319       0.82433318E-01   0.59776143       0.27010000E-01  -0.11150000E-01    1.0000000       0.19769099
  2167.9900        1.1267800       0.99646461       0.82496154E-01   0.59763259       0.22070000E-01  -0.28020000E-01    1.0000000       0.25036603
  2168.4900        1.1305000       0.98676651       0.82558989E-01   0.59750375      -0.10100000E-02  -0.38310000E-01    1.0000000       0.27614530
  2168.9900        1.1257700       0.97650552       0.82621825E-01   0.59737491      -0.16240000E-01  -0.12880000E-01    1.0000000       0.28677160
  2169.4900        1.1142600       0.96574953       0.82684660E-01   0.59724607      -0.13890000E-01  -0.68200000E-02    1.0000000       0.28532298
  2169.9900        1.1118800       0.95456641       0.82747496E-01   0.59711724      -0.23060000E-01  -0.23010000E-01    1.0000000       0.30223582
  2170.4900        1.0912000       0.94302403       0.82810332E-01   0.59698840      -0.36900000E-01  -0.12090000E-01    1.0000000       0.28468034
  2170.9900        1.0749800       0.93119028       0.82873167E-01   0.59685956      -0.35150000E-01  -0.89100000E-02    1.0000000       0.27625334
  2171.4900        1.0560500       0.91913303       0.82936003E-01   0.59673072      -0.45810000E-01  -0.21975000E-01    1.0000000       0.26304919
  2171.9900        1.0291700       0.90692016       0.82998839E-01   0.59660188      -0.57125000E-01  -0.91790000E-02    1.0000000       0.23487023
  2172.4900       0.99892500       0.89461956       0.83061674E-01   0.59647305      -0.54989000E-01  -0.20100000E-02    1.0000000       0.20039490
  2172.9900       0.97418100       0.88229909       0.83124510E-01   0.59634421      -0.59135000E-01  -0.10067000E-01    1.0000000       0.17652642
  2173.4900       0.93979000       0.87002664       0.83187345E-01   0.59621537      -0.65056000E-01   0.33540000E-02    1.0000000       0.13403157
  2173.9900       0.90912500       0.85787008       0.83250181E-01   0.59608653      -0.55781000E-01   0.77100000E-02    1.0000000       0.98472566E-01
  2174.4900       0.88400900       0.84589729       0.83313017E-01   0.59595769      -0.57346000E-01  -0.12950000E-02    1.0000000       0.73221407E-01
  2174.9900       0.85177900       0.83417610       0.83375852E-01   0.59582886      -0.57076000E-01   0.12304000E-01    1.0000000       0.33819250E-01
  2175.4900       0.82693300       0.82275529       0.83438688E-01   0.59570002      -0.45042000E-01   0.80950000E-02    1.0000000       0.80263502E-02
  2175.9900       0.80673700       0.81163810       0.83501523E-01   0.59557118      -0.48981000E-01  -0.14860000E-02    1.0000000      -0.94161403E-02
  2176.4900       0.77795200       0.80082106       0.83564359E-01   0.59544234      -0.46528000E-01   0.11678000E-01    1.0000000      -0.43936763E-01
  2176.9900       0.76020900       0.79030073       0.83627195E-01   0.59531350      -0.37303000E-01   0.71050000E-02    1.0000000      -0.57813181E-01
  2177.4900       0.74064900       0.78007365       0.83690030E-01   0.59518467      -0.39423000E-01   0.43210000E-02    1.0000000      -0.75743869E-01
  2177.9900       0.72078600       0.77013635       0.83752866E-01   0.59505583      -0.32982000E-01   0.13337000E-01    1.0000000      -0.94813438E-01
  2178.4900       0.70766700       0.76048538       0.83815702E-01   0.59492699      -0.26086000E-01   0.30060000E-02    1.0000000      -0.10147633
  2178.9900       0.69470000       0.75111729       0.83878537E-01   0.59479815      -0.29976000E-01  -0.21090000E-02    1.0000000      -0.10839066
  2179.4900       0.67769100       0.74202861       0.83941373E-01   0.59466931      -0.28195000E-01   0.12027000E-01    1.0000000      -0.12360743
  2179.9900       0.66650500       0.73321589       0.84004208E-01   0.59454048      -0.17949000E-01   0.13454000E-01    1.0000000      -0.12816706
  2180.4900       0.65974200       0.72467567       0.84067044E-01   0.59441164      -0.14741000E-01   0.16020000E-02    1.0000000      -0.12475261
  2180.9900       0.65176400       0.71640450       0.84129880E-01   0.59428280      -0.16347000E-01  -0.61000000E-04    1.0000000      -0.12418936
  2181.4900       0.64339500       0.70839892       0.84192715E-01   0.59415396      -0.14802000E-01   0.67320000E-02    1.0000000      -0.12488757
  2181.9900       0.63696200       0.70065547       0.84255551E-01   0.59402512      -0.96150000E-02   0.96350000E-02    1.0000000      -0.12236989
  2182.4900       0.63378000       0.69317069       0.84318386E-01   0.59389629      -0.51670000E-02   0.29640000E-02    1.0000000      -0.11410326
  2182.9900       0.63179500       0.68594113       0.84381222E-01   0.59376745      -0.66510000E-02  -0.38420000E-02    1.0000000      -0.10402724
  2183.4900       0.62712900       0.67896332       0.84444058E-01   0.59363861      -0.90090000E-02   0.23660000E-02    1.0000000      -0.99585733E-01
  2183.9900       0.62278600       0.67223382       0.84506893E-01   0.59350977      -0.42850000E-02   0.47650000E-02    1.0000000      -0.95000715E-01
  2184.4900       0.62284400       0.66574917       0.84569729E-01   0.59338093      -0.42440000E-02   0.20480000E-02    1.0000000      -0.82430761E-01
  2184.9900       0.61854200       0.65950590       0.84632565E-01   0.59325210      -0.22370000E-02   0.29780000E-02    1.0000000      -0.78701138E-01
  2185.4900       0.62060700       0.65350057       0.84695400E-01   0.59312326      -0.12660000E-02  -0.58900000E-02    1.0000000      -0.63196156E-01
  2185.9900       0.61727600       0.64772971       0.84758236E-01   0.59299442      -0.81270000E-02  -0.81290000E-02    1.0000000      -0.58508617E-01
  2186.4900       0.61248000       0.64218986       0.84821071E-01   0.59286558      -0.93950000E-02   0.82720000E-02    1.0000000      -0.57079518E-01
  2186.9900       0.60788100       0.63687758       0.84883907E-01   0.59273674       0.14500000E-03   0.11803000E-01    1.0000000      -0.55709132E-01
  2187.4900       0.61262500       0.63178939       0.84946743E-01   0.59260791       0.24080000E-02  -0.61420000E-02    1.0000000      -0.36819234E-01
  2187.9900       0.61028900       0.62692186       0.85009578E-01   0.59247907      -0.59970000E-02  -0.48530000E-02    1.0000000      -0.31955564E-01
  2188.4900       0.60662800       0.62227151       0.85072414E-01   0.59235023      -0.24450000E-02  -0.18200000E-03    1.0000000      -0.30054796E-01
  2188.9900       0.60784400       0.61783489       0.85135249E-01   0.59222139      -0.61790000E-02  -0.14970000E-02    1.0000000      -0.19194808E-01
  2189.4900       0.60044900       0.61360854       0.85198085E-01   0.59209255      -0.39420000E-02   0.62630000E-02    1.0000000      -0.25282530E-01
  2189.9900       0.60390200       0.60958902       0.85260921E-01   0.59196372       0.84000000E-04  -0.10710000E-02    1.0000000      -0.10926076E-01
  2190.4900       0.60053300       0.60577285       0.85323756E-01   0.59183488      -0.50130000E-02  -0.66520000E-02    1.0000000      -0.10066965E-01
  2190.9900       0.59888900       0.60215659       0.85386592E-01   0.59170604      -0.65680000E-02   0.29370000E-02    1.0000000      -0.62777881E-02
  2191.4900       0.59396500       0.59873677       0.85449428E-01   0.59157720      -0.20760000E-02   0.66370000E-02    1.0000000      -0.91676680E-02
  2191.9900       0.59681300       0.59550994       0.85512263E-01   0.59144836       0.69000000E-04  -0.42420000E-02    1.0000000       0.25034874E-02
  2192.4900       0.59403400       0.59247264       0.85575099E-01   0.59131952      -0.63180000E-02   0.50100000E-03    1.0000000       0.29997400E-02
  2192.9900       0.59049500       0.58962141       0.85637934E-01   0.59119069       0.57000000E-03   0.49160000E-02    1.0000000       0.16783651E-02
  2193.4900       0.59460400       0.58695280       0.85700770E-01   0.59106185      -0.14020000E-02  -0.48070000E-02    1.0000000       0.14699719E-01
  2193.9900       0.58909300       0.58446336       0.85763606E-01   0.59093301      -0.42370000E-02  -0.13510000E-02    1.0000000       0.88946178E-02
  2194.4900       0.59036700       0.58214961       0.85826441E-01   0.59080417      -0.27530000E-02   0.37580000E-02    1.0000000       0.15787507E-01
  2194.9900       0.58634000       0.58000811       0.85889277E-01   0.59067533      -0.47900000E-03   0.67350000E-02    1.0000000       0.12165024E-01
  2195.4900       0.58988800       0.57803540       0.85952113E-01   0.59054650       0.39820000E-02  -0.61150000E-02    1.0000000       0.22771587E-01
  2195.9900       0.59032200       0.57622802       0.86014948E-01   0.59041766      -0.65940000E-02  -0.14472000E-01    1.0000000       0.27077796E-01
  2196.4900       0.58329400       0.57458252       0.86077784E-01   0.59028882      -0.10490000E-01   0.98640000E-02    1.0000000       0.16736777E-01
  2196.9900       0.57983200       0.57309543       0.86140619E-01   0.59015998       0.32700000E-02   0.14302000E-01    1.0000000       0.12942514E-01
  2197.4900       0.58656400       0.57176330       0.86203455E-01   0.59003114       0.38120000E-02  -0.31140000E-02    1.0000000       0.28435569E-01
  2197.9900       0.58364400       0.57058268       0.86266291E-01   0.58990231       0.15600000E-03  -0.84250000E-02    1.0000000       0.25093827E-01
  2198.4900       0.58672000       0.56955010       0.86329126E-01   0.58977347      -0.46130000E-02  -0.58020000E-02    1.0000000       0.32987358E-01
  2198.9900       0.57903100       0.56866211       0.86391962E-01   0.58964463      -0.56460000E-02   0.99400000E-02    1.0000000       0.19921044E-01
  2199.4900       0.58107400       0.56791525       0.86454797E-01   0.58951579       0.53270000E-02   0.10240000E-02    1.0000000       0.25281008E-01
  2199.9900       0.58435800       0.56730606       0.86517633E-01   0.58938695      -0.46220000E-02  -0.66903333E-02    1.0000000       0.32760715E-01
  2200.4900       0.57645200       0.56683110       0.86580469E-01   0.58925812      -0.13633333E-02   0.60893333E-02    1.0000000       0.18483981E-01
  2201.4900       0.58231300       0.56626999       0.86706140E-01   0.58900044       0.45120000E-02   0.55391667E-03    1.0000000       0.30822339E-01
  2202.4900       0.58547600       0.56620426       0.86831811E-01   0.58874276      -0.25550000E-03  -0.20340000E-02    1.0000000       0.37025468E-01
  2203.4900       0.58180200       0.56660626       0.86957482E-01   0.58848509       0.44400000E-03  -0.56600000E-03    1.0000000       0.29194526E-01
  2204.4900       0.58636400       0.56744834       0.87083154E-01   0.58822741      -0.13875000E-02  -0.68250000E-03    1.0000000       0.36341369E-01
  2205.4900       0.57902700       0.56870282       0.87208825E-01   0.58796974      -0.92100000E-03   0.20982500E-02    1.0000000       0.19835139E-01
  2206.4900       0.58452200       0.57034206       0.87334496E-01   0.58771206       0.28090000E-02   0.97125000E-03    1.0000000       0.27242944E-01
  2207.4900       0.58464500       0.57233840       0.87460167E-01   0.58745438       0.10215000E-02  -0.13977500E-02    1.0000000       0.23643824E-01
  2208.4900       0.58656500       0.57466418       0.87585839E-01   0.58719671       0.13500000E-04   0.42725000E-03    1.0000000       0.22864222E-01
  2209.4900       0.58467200       0.57729175       0.87711510E-01   0.58693903       0.18760000E-02   0.10727500E-02    1.0000000       0.14179165E-01
  2210.4900       0.59031700       0.58019345       0.87837181E-01   0.58668136       0.21590000E-02  -0.18197500E-02    1.0000000       0.19449686E-01
  2211.4900       0.58899000       0.58334162       0.87962852E-01   0.58642368      -0.17635000E-02   0.21750000E-04    1.0000000       0.10851854E-01
  2212.4900       0.58679000       0.58670860       0.88088523E-01   0.58616600       0.22025000E-02   0.25412500E-02    1.0000000       0.15639321E-03
  2213.4900       0.59339500       0.59026674       0.88214195E-01   0.58590833       0.33190000E-02  -0.76775000E-03    1.0000000       0.60101177E-02
  2214.4900       0.59342800       0.59398838       0.88339866E-01   0.58565065       0.66700000E-03  -0.19200000E-03    1.0000000      -0.10766130E-02
  2215.4900       0.59472900       0.59784586       0.88465537E-01   0.58539297       0.29350000E-02   0.18302500E-02    1.0000000      -0.59882090E-02
  2216.4900       0.59929800       0.60181153       0.88591208E-01   0.58513530       0.43275000E-02   0.87350000E-03    1.0000000      -0.48290721E-02
  2217.4900       0.60338400       0.60585773       0.88716880E-01   0.58487762       0.46820000E-02  -0.88525000E-03    1.0000000      -0.47526059E-02
  2218.4900       0.60866200       0.60995680       0.88842551E-01   0.58461995       0.25570000E-02  -0.12945000E-02    1.0000000      -0.24876122E-02
  2219.4900       0.60849800       0.61408109       0.88968222E-01   0.58436227       0.20930000E-02   0.15705000E-02    1.0000000      -0.10726405E-01
  2220.4900       0.61284800       0.61820293       0.89093893E-01   0.58410459       0.56980000E-02   0.12325000E-02    1.0000000      -0.10288069E-01
  2221.4900       0.61989400       0.62229468       0.89219565E-01   0.58384692       0.45580000E-02  -0.14125000E-02    1.0000000      -0.46122670E-02
  2222.4900       0.62196400       0.62632868       0.89345236E-01   0.58358924       0.28730000E-02  -0.15917500E-02    1.0000000      -0.83855514E-02
  2223.4900       0.62564000       0.63027726       0.89470907E-01   0.58333157       0.13745000E-02  -0.21300000E-03    1.0000000      -0.89092414E-02
  2224.4900       0.62471300       0.63411277       0.89596578E-01   0.58307389       0.24470000E-02   0.16612500E-02    1.0000000      -0.18059128E-01
  2225.4900       0.63053400       0.63780755       0.89722249E-01   0.58281621       0.46970000E-02   0.44400000E-03    1.0000000      -0.13974177E-01
  2226.4900       0.63410700       0.64133395       0.89847921E-01   0.58255854       0.33350000E-02  -0.18122500E-02    1.0000000      -0.13884651E-01
  2227.4900       0.63720400       0.64466432       0.89973592E-01   0.58230086       0.10725000E-02   0.67375000E-03    1.0000000      -0.14332993E-01
  2228.4900       0.63625200       0.64777098       0.90099263E-01   0.58204319       0.46825000E-02   0.23215000E-02    1.0000000      -0.22130627E-01
  2229.4900       0.64656900       0.65062629       0.90224934E-01   0.58178551       0.57155000E-02  -0.16270000E-02    1.0000000      -0.77949945E-02
  2230.4900       0.64768300       0.65320259       0.90350606E-01   0.58152783       0.14285000E-02  -0.25420000E-02    1.0000000      -0.10604410E-01
  2231.4900       0.64942600       0.65547222       0.90476277E-01   0.58127016       0.63150000E-03   0.10350000E-03    1.0000000      -0.11616192E-01
  2232.4900       0.64894600       0.65740753       0.90601948E-01   0.58101248       0.16355000E-02   0.81100000E-03    1.0000000      -0.16256555E-01
  2233.4900       0.65269700       0.65898085       0.90727619E-01   0.58075481       0.22535000E-02  -0.12867500E-02    1.0000000      -0.12072737E-01
  2234.4900       0.65345300       0.66016454       0.90853291E-01   0.58049713      -0.93800000E-03  -0.19500000E-04    1.0000000      -0.12894420E-01
  2235.4900       0.65082100       0.66093093       0.90978962E-01   0.58023945       0.22145000E-02   0.12810000E-02    1.0000000      -0.19423514E-01
  2236.4900       0.65788200       0.66125237       0.91104633E-01   0.57998178       0.16240000E-02  -0.11200000E-02    1.0000000      -0.64752539E-02
  2237.4900       0.65406900       0.66110119       0.91230304E-01   0.57972410      -0.25500000E-04   0.10690000E-02    1.0000000      -0.13510472E-01
  2238.4900       0.65783100       0.66044975       0.91355976E-01   0.57946643       0.37620000E-02   0.37875000E-02    1.0000000      -0.50312333E-02
