# XDI/1.0 Athena/0.9.26
# Element.edge:                  K
# Element.symbol:                P
# Column.1:                      energy eV
# Column.2:                      xmu
# Column.3:                      bkg
# Column.4:                      pre_edge
# Column.5:                      post_edge
# Column.6:                      der
# Column.7:                      sec
# Column.8:                      i0
# Column.9:                      chi(e)
# Athena.e0:                     2154
# Athena.eshift:                 0.49
# Athena.rbkg:                   1.0
# Athena.importance:             1
# Athena.standard:               None
# Athena.bkg_kweight:            2
# Athena.edge_step:              0.8318977
# Athena.fixed_step:             no
# Athena.pre_edge_range:         -25 -10
# Athena.pre_edge_line:          -0.971365 + 0.000496039 * E
# Athena.normalization_range:    33.5 65
# Athena.post_edge_polynomial:   0.602220 + 0.000151709 * E + 0 * E^2 + 0 * E^3
# Athena.spline_range_energy:    0.000 85.601
# Athena.clamps:                 0 24
# Athena.spline_range_k:         0.000 4.740
# Athena.kweight:                2
# Athena.window:                 hanning
# Athena.phase_correction:       no
# Athena.k_range:                2.740 3.000
# Athena.dk:                     1
# Athena.r_range:                1 3
# Athena.dr:                     0.0
# Athena.window:                 hanning
# Athena.plot_multiplier:        1
# Athena.y_offset:               0
# ///
#------------------------
#   e         xmu        bkg        pre_edge        post_edge        der        sec        i0        chie
  2125.4900       0.96072000E-01   0.96072000E-01   0.82961513E-01   0.92467612      -0.15052500E-02   0.42550000E-04    1.0000000        0.0000000
  2127.4900       0.93061500E-01   0.93061500E-01   0.83953592E-01   0.92497954      -0.14201500E-02   0.12023125E-03    1.0000000        0.0000000
  2129.4900       0.90391400E-01   0.90391400E-01   0.84945670E-01   0.92528295      -0.10243250E-02   0.19271875E-03    1.0000000        0.0000000
  2131.4900       0.88964200E-01   0.88964200E-01   0.85937749E-01   0.92558637      -0.64927500E-03   0.11615000E-03    1.0000000        0.0000000
  2133.4900       0.87794300E-01   0.87794300E-01   0.86929828E-01   0.92588979      -0.55972500E-03   0.50912500E-04    1.0000000        0.0000000
  2135.4900       0.86725300E-01   0.86725300E-01   0.87921907E-01   0.92619321      -0.44562500E-03   0.18597500E-03    1.0000000        0.0000000
  2137.4900       0.86011800E-01   0.86011800E-01   0.88913985E-01   0.92649662       0.18417500E-03   0.29040625E-03    1.0000000        0.0000000
  2139.4900       0.87462000E-01   0.87462000E-01   0.89906064E-01   0.92680004       0.71600000E-03   0.72032576E-04    1.0000000        0.0000000
  2140.4900       0.88159800E-01   0.88159800E-01   0.90402103E-01   0.92695175       0.40027273E-03  -0.73740909E-02    1.0000000        0.0000000
  2140.5900       0.87902300E-01   0.87902300E-01   0.90451707E-01   0.92696692      -0.73955000E-02  -0.33763636E-02    1.0000000        0.0000000
  2140.6900       0.86680700E-01   0.86680700E-01   0.90501311E-01   0.92698209      -0.27500000E-03   0.76450000E-01    1.0000000        0.0000000
  2140.7900       0.87847300E-01   0.87847300E-01   0.90550915E-01   0.92699726       0.78945000E-02   0.65375000E-02    1.0000000        0.0000000
  2140.8900       0.88259600E-01   0.88259600E-01   0.90600519E-01   0.92701244       0.10325000E-02  -0.27500000E-01    1.0000000        0.0000000
  2140.9900       0.88053800E-01   0.88053800E-01   0.90650123E-01   0.92702761       0.23945000E-02  -0.13562500E-01    1.0000000        0.0000000
  2141.0900       0.88738500E-01   0.88738500E-01   0.90699727E-01   0.92704278      -0.16800000E-02  -0.22612500E-01    1.0000000        0.0000000
  2141.1900       0.87717800E-01   0.87717800E-01   0.90749331E-01   0.92705795      -0.21280000E-02   0.58110000E-01    1.0000000        0.0000000
  2141.2900       0.88312900E-01   0.88312900E-01   0.90798935E-01   0.92707312       0.99420000E-02   0.35105000E-01    1.0000000        0.0000000
  2141.3900       0.89706200E-01   0.89706200E-01   0.90848539E-01   0.92708829       0.48930000E-02  -0.62370000E-01    1.0000000        0.0000000
  2141.4900       0.89291500E-01   0.89291500E-01   0.90898143E-01   0.92710346      -0.25320000E-02  -0.60200000E-02    1.0000000        0.0000000
  2141.5900       0.89199800E-01   0.89199800E-01   0.90947747E-01   0.92711863       0.36890000E-02   0.94225000E-02    1.0000000        0.0000000
  2141.6900       0.90029300E-01   0.90029300E-01   0.90997350E-01   0.92713380      -0.64750000E-03  -0.26072500E-01    1.0000000        0.0000000
  2141.7900       0.89070300E-01   0.89070300E-01   0.91046954E-01   0.92714897      -0.15255000E-02   0.25625000E-01    1.0000000        0.0000000
  2141.8900       0.89724200E-01   0.89724200E-01   0.91096558E-01   0.92716414       0.44775000E-02   0.29160000E-01    1.0000000        0.0000000
  2141.9900       0.89965800E-01   0.89965800E-01   0.91146162E-01   0.92717931       0.43065000E-02  -0.13600000E-01    1.0000000        0.0000000
  2142.0900       0.90585500E-01   0.90585500E-01   0.91195766E-01   0.92719449       0.17575000E-02  -0.22435000E-01    1.0000000        0.0000000
  2142.1900       0.90317300E-01   0.90317300E-01   0.91245370E-01   0.92720966      -0.18050000E-03   0.48400000E-02    1.0000000        0.0000000
  2142.2900       0.90549400E-01   0.90549400E-01   0.91294974E-01   0.92722483       0.27255000E-02   0.26190000E-01    1.0000000        0.0000000
  2142.3900       0.90862400E-01   0.90862400E-01   0.91344578E-01   0.92724000       0.50575000E-02   0.17727500E-01    1.0000000        0.0000000
  2142.4900       0.91560900E-01   0.91560900E-01   0.91394182E-01   0.92725517       0.62710000E-02  -0.17337500E-01    1.0000000        0.0000000
  2142.5900       0.92116600E-01   0.92116600E-01   0.91443786E-01   0.92727034       0.15900000E-02  -0.74750000E-03    1.0000000        0.0000000
  2142.6900       0.91878900E-01   0.91878900E-01   0.91493390E-01   0.92728551       0.61215000E-02  -0.94075000E-02    1.0000000        0.0000000
  2142.7900       0.93340900E-01   0.93340900E-01   0.91542994E-01   0.92730068      -0.29150000E-03  -0.41302500E-01    1.0000000        0.0000000
  2142.8900       0.91820600E-01   0.91820600E-01   0.91592598E-01   0.92731585      -0.21390000E-02   0.11700000E-02    1.0000000        0.0000000
  2142.9900       0.92913100E-01   0.92913100E-01   0.91642202E-01   0.92733102      -0.57500000E-04   0.42420000E-01    1.0000000        0.0000000
  2143.0900       0.91809100E-01   0.91809100E-01   0.91691806E-01   0.92734619       0.63450000E-02   0.55690000E-01    1.0000000        0.0000000
  2143.1900       0.94182100E-01   0.94182100E-01   0.91741410E-01   0.92736137       0.11080500E-01  -0.11762500E-01    1.0000000        0.0000000
  2143.2900       0.94025200E-01   0.94025200E-01   0.91791013E-01   0.92737654       0.39925000E-02  -0.35850000E-01    1.0000000        0.0000000
  2143.3900       0.94980600E-01   0.94980600E-01   0.91840617E-01   0.92739171       0.39105000E-02  -0.20145000E-01    1.0000000        0.0000000
  2143.4900       0.94807300E-01   0.94807300E-01   0.91890221E-01   0.92740688      -0.36500000E-04   0.34125000E-02    1.0000000        0.0000000
  2143.5900       0.94973300E-01   0.94973300E-01   0.91939825E-01   0.92742205       0.45930000E-02   0.12500000E-03    1.0000000        0.0000000
  2143.6900       0.95725900E-01   0.95725900E-01   0.91989429E-01   0.92743722      -0.11500000E-04   0.69725000E-02    1.0000000        0.0000000
  2143.7900       0.94971000E-01   0.94971000E-01   0.92039033E-01   0.92745239       0.59875000E-02   0.24010000E-01    1.0000000        0.0000000
  2143.8900       0.96923400E-01   0.96923400E-01   0.92088637E-01   0.92746756       0.47905000E-02  -0.37770000E-01    1.0000000        0.0000000
  2143.9900       0.95929100E-01   0.95929100E-01   0.92138241E-01   0.92748273      -0.15665000E-02   0.29795000E-01    1.0000000        0.0000000
  2144.0900       0.96610100E-01   0.96610100E-01   0.92187845E-01   0.92749790       0.10749500E-01   0.52470000E-01    1.0000000        0.0000000
  2144.1900       0.98079000E-01   0.98079000E-01   0.92237449E-01   0.92751307       0.89275000E-02  -0.18005000E-01    1.0000000        0.0000000
  2144.2900       0.98395600E-01   0.98395600E-01   0.92287053E-01   0.92752825       0.71485000E-02  -0.21847500E-01    1.0000000        0.0000000
  2144.3900       0.99508700E-01   0.99508700E-01   0.92336657E-01   0.92754342       0.45580000E-02  -0.42362500E-01    1.0000000        0.0000000
  2144.4900       0.99307200E-01   0.99307200E-01   0.92386261E-01   0.92755859      -0.13240000E-02   0.18000000E-03    1.0000000        0.0000000
  2144.5900       0.99243900E-01   0.99243900E-01   0.92435865E-01   0.92757376       0.45940000E-02   0.47722500E-01    1.0000000        0.0000000
  2144.6900       0.10022600       0.10022600       0.92485469E-01   0.92758893       0.82205000E-02  -0.19950000E-02    1.0000000        0.0000000
  2144.7900       0.10088800       0.10088800       0.92535072E-01   0.92760410       0.41950000E-02  -0.93025000E-02    1.0000000        0.0000000
  2144.8900       0.10106500       0.10106500       0.92584676E-01   0.92761927       0.63600000E-02   0.49950000E-01    1.0000000        0.0000000
  2144.9900       0.10216000       0.10216000       0.92634280E-01   0.92763444       0.14185000E-01   0.64500000E-02    1.0000000        0.0000000
  2145.0900       0.10390200       0.10390200       0.92683884E-01   0.92764961       0.76500000E-02  -0.75875000E-01    1.0000000        0.0000000
  2145.1900       0.10369000       0.10369000       0.92733488E-01   0.92766478      -0.99000000E-03  -0.87250000E-02    1.0000000        0.0000000
  2145.2900       0.10370400       0.10370400       0.92783092E-01   0.92767995       0.59050000E-02   0.67025000E-01    1.0000000        0.0000000
  2145.3900       0.10487100       0.10487100       0.92832696E-01   0.92769513       0.12415000E-01   0.38575000E-01    1.0000000        0.0000000
  2145.4900       0.10618700       0.10618700       0.92882300E-01   0.92771030       0.13620000E-01  -0.39075000E-01    1.0000000        0.0000000
  2145.5900       0.10759500       0.10759500       0.92931904E-01   0.92772547       0.46000000E-02  -0.72175000E-01    1.0000000        0.0000000
  2145.6900       0.10710700       0.10710700       0.92981508E-01   0.92774064      -0.81500000E-03   0.53500000E-01    1.0000000        0.0000000
  2145.7900       0.10743200       0.10743200       0.93031112E-01   0.92775581       0.15300000E-01   0.91025000E-01    1.0000000        0.0000000
  2145.8900       0.11016700       0.11016700       0.93080716E-01   0.92777098       0.17390000E-01  -0.41450000E-01    1.0000000        0.0000000
  2145.9900       0.11091000       0.11091000       0.93130320E-01   0.92778615       0.70100000E-02  -0.46250000E-01    1.0000000        0.0000000
  2146.0900       0.11156900       0.11156900       0.93179924E-01   0.92780132       0.81400000E-02   0.45700000E-01    1.0000000        0.0000000
  2146.1900       0.11253800       0.11253800       0.93229528E-01   0.92781649       0.16150000E-01   0.31750000E-01    1.0000000        0.0000000
  2146.2900       0.11479900       0.11479900       0.93279131E-01   0.92783166       0.14490000E-01  -0.25875000E-01    1.0000000        0.0000000
  2146.3900       0.11543600       0.11543600       0.93328735E-01   0.92784683       0.10975000E-01   0.46750000E-02    1.0000000        0.0000000
  2146.4900       0.11699400       0.11699400       0.93378339E-01   0.92786201       0.15425000E-01   0.59500000E-02    1.0000000        0.0000000
  2146.5900       0.11852100       0.11852100       0.93427943E-01   0.92787718       0.12165000E-01  -0.39350000E-01    1.0000000        0.0000000
  2146.6900       0.11942700       0.11942700       0.93477547E-01   0.92789235       0.75550000E-02  -0.11750000E-02    1.0000000        0.0000000
  2146.7900       0.12003200       0.12003200       0.93527151E-01   0.92790752       0.11930000E-01   0.83350000E-01    1.0000000        0.0000000
  2146.8900       0.12181300       0.12181300       0.93576755E-01   0.92792269       0.24225000E-01   0.72175000E-01    1.0000000        0.0000000
  2146.9900       0.12487700       0.12487700       0.93626359E-01   0.92793786       0.26365000E-01  -0.41550000E-01    1.0000000        0.0000000
  2147.0900       0.12708600       0.12708600       0.93675963E-01   0.92795303       0.15915000E-01  -0.71525000E-01    1.0000000        0.0000000
  2147.1900       0.12806000       0.12806000       0.93725567E-01   0.92796820       0.12060000E-01   0.53675000E-01    1.0000000        0.0000000
  2147.2900       0.12949800       0.12949800       0.93775171E-01   0.92798337       0.26650000E-01   0.76800000E-01    1.0000000        0.0000000
  2147.3900       0.13339000       0.13339000       0.93824775E-01   0.92799854       0.27420000E-01   0.10500000E-02    1.0000000        0.0000000
  2147.4900       0.13498200       0.13498200       0.93874379E-01   0.92801371       0.26860000E-01   0.60500000E-02    1.0000000        0.0000000
  2147.5900       0.13876200       0.13876200       0.93923983E-01   0.92802888       0.28630000E-01  -0.34175000E-01    1.0000000        0.0000000
  2147.6900       0.14070800       0.14070800       0.93973587E-01   0.92804406       0.20025000E-01  -0.18650000E-01    1.0000000        0.0000000
  2147.7900       0.14276700       0.14276700       0.94023191E-01   0.92805923       0.24900000E-01   0.63425000E-01    1.0000000        0.0000000
  2147.8900       0.14568800       0.14568800       0.94072794E-01   0.92807440       0.32710000E-01   0.10105000        1.0000000        0.0000000
  2147.9900       0.14930900       0.14930900       0.94122398E-01   0.92808957       0.45110000E-01   0.49550000E-01    1.0000000        0.0000000
  2148.0900       0.15471000       0.15471000       0.94172002E-01   0.92810474       0.42620000E-01  -0.10892500        1.0000000        0.0000000
  2148.1900       0.15783300       0.15783300       0.94221606E-01   0.92811991       0.23325000E-01   0.20000000E-03    1.0000000        0.0000000
  2148.2900       0.15937500       0.15937500       0.94271210E-01   0.92813508       0.42660000E-01   0.19580000        1.0000000        0.0000000
  2148.3900       0.16636500       0.16636500       0.94320814E-01   0.92815025       0.62485000E-01   0.42650000E-01    1.0000000        0.0000000
  2148.4900       0.17187200       0.17187200       0.94370418E-01   0.92816542       0.51190000E-01  -0.41100000E-01    1.0000000        0.0000000
  2148.5900       0.17660300       0.17660300       0.94420022E-01   0.92818059       0.54265000E-01   0.36000000E-01    1.0000000        0.0000000
  2148.6900       0.18272500       0.18272500       0.94469626E-01   0.92819576       0.58390000E-01   0.42250000E-01    1.0000000        0.0000000
  2148.7900       0.18828100       0.18828100       0.94519230E-01   0.92821094       0.62715000E-01   0.48525000E-01    1.0000000        0.0000000
  2148.8900       0.19526800       0.19526800       0.94568834E-01   0.92822611       0.68095000E-01   0.98650000E-01    1.0000000        0.0000000
  2148.9900       0.20190000       0.20190000       0.94618438E-01   0.92824128       0.82445000E-01   0.13492500        1.0000000        0.0000000
  2149.0900       0.21175700       0.21175700       0.94668042E-01   0.92825645       0.95080000E-01   0.10545000        1.0000000        0.0000000
  2149.1900       0.22091600       0.22091600       0.94717646E-01   0.92827162       0.10353500       0.14460000        1.0000000        0.0000000
  2149.2900       0.23246400       0.23246400       0.94767250E-01   0.92828679       0.12400000       0.98025000E-01    1.0000000        0.0000000
  2149.3900       0.24571600       0.24571600       0.94816853E-01   0.92830196       0.12314000       0.12635000        1.0000000        0.0000000
  2149.4900       0.25709200       0.25709200       0.94866457E-01   0.92831713       0.14927000       0.27985000        1.0000000        0.0000000
  2149.5900       0.27557000       0.27557000       0.94916061E-01   0.92833230       0.17911000       0.28990000        1.0000000        0.0000000
  2149.6900       0.29291400       0.29291400       0.94965665E-01   0.92834747       0.20725000       0.41787500        1.0000000        0.0000000
  2149.7900       0.31702000       0.31702000       0.95015269E-01   0.92836264       0.26268500       0.61222500        1.0000000        0.0000000
  2149.8900       0.34545100       0.34545100       0.95064873E-01   0.92837782       0.32969500       0.62340000        1.0000000        0.0000000
  2149.9900       0.38295900       0.38295900       0.95114477E-01   0.92839299       0.38736500       0.71302500        1.0000000        0.0000000
  2150.0900       0.42292400       0.42292400       0.95164081E-01   0.92840816       0.47230000        1.1016750        1.0000000        0.0000000
  2150.1900       0.47741900       0.47741900       0.95213685E-01   0.92842333       0.60770000        1.3352250        1.0000000        0.0000000
  2150.2900       0.54446400       0.54446400       0.95263289E-01   0.92843850       0.73934500        1.2404250        1.0000000        0.0000000
  2150.3900       0.62528800       0.62528800       0.95312893E-01   0.92845367       0.85578500        1.3453000        1.0000000        0.0000000
  2150.4900       0.71562100       0.71562100       0.95362497E-01   0.92846884        1.0084050        1.4491750        1.0000000        0.0000000
  2150.5900       0.82696900       0.82696900       0.95412101E-01   0.92848401        1.1456200        1.4620000        1.0000000        0.0000000
  2150.6900       0.94474500       0.94474500       0.95461705E-01   0.92849918        1.3008050        1.7312750        1.0000000        0.0000000
  2150.7900        1.0871300        1.0871300       0.95511309E-01   0.92851435        1.4918750        1.5027250        1.0000000        0.0000000
  2150.8900        1.2431200        1.2431200       0.95560913E-01   0.92852952        1.6013500        1.7806250        1.0000000        0.0000000
  2150.9900        1.4074000        1.4074000       0.95610516E-01   0.92854470        1.8480000        2.8322500        1.0000000        0.0000000
  2151.0900        1.6127200        1.6127200       0.95660120E-01   0.92855987        2.1678000        3.3550000        1.0000000        0.0000000
  2151.1900        1.8409600        1.8409600       0.95709724E-01   0.92857504        2.5190000        4.3687500        1.0000000        0.0000000
  2151.2900        2.1165200        2.1165200       0.95759328E-01   0.92859021        3.0415500        5.2207500        1.0000000        0.0000000
  2151.3900        2.4492700        2.4492700       0.95808932E-01   0.92860538        3.5631500        6.2355000        1.0000000        0.0000000
  2151.4900        2.8291500        2.8291500       0.95858536E-01   0.92862055        4.2886500        6.3052500        1.0000000        0.0000000
  2151.5900        3.3070000        3.3070000       0.95908140E-01   0.92863572        4.8242000        3.8455000        1.0000000        0.0000000
  2151.6900        3.7939900        3.7939900       0.95957744E-01   0.92865089        5.0577500       0.96700000        1.0000000        0.0000000
  2151.7900        4.3185500        4.3185500       0.96007348E-01   0.92866606        5.0176000       -2.8420000        1.0000000        0.0000000
  2151.8900        4.7975100        4.7975100       0.96056952E-01   0.92868123        4.4893500       -6.0940000        1.0000000        0.0000000
  2151.9900        5.2164200        5.2164200       0.96106556E-01   0.92869640        3.7988000       -6.1912500        1.0000000        0.0000000
  2152.0900        5.5572700        5.5572700       0.96156160E-01   0.92871158        3.2511000       -6.2050000        1.0000000        0.0000000
  2152.1900        5.8666400        5.8666400       0.96205764E-01   0.92872675        2.5578000       -7.8812500        1.0000000        0.0000000
  2152.2900        6.0688300        6.0688300       0.96255368E-01   0.92874192        1.6748500       -6.5400000        1.0000000        0.0000000
  2152.3900        6.2016100        6.2016100       0.96304972E-01   0.92875709        1.2498000       -5.4280000        1.0000000        0.0000000
  2152.4900        6.3187900        6.3187900       0.96354575E-01   0.92877226       0.58925000       -5.9722500        1.0000000        0.0000000
  2152.5900        6.3194600        6.3194600       0.96404179E-01   0.92878743       0.55350000E-01   -4.4130000        1.0000000        0.0000000
  2152.6900        6.3298600        6.3298600       0.96453783E-01   0.92880260      -0.29335000       -4.8517500        1.0000000        0.0000000
  2152.7900        6.2607900        6.2607900       0.96503387E-01   0.92881777      -0.91500000       -4.7615000        1.0000000        0.0000000
  2152.8900        6.1468600        6.1468600       0.96552991E-01   0.92883294       -1.2456500       -4.3262500        1.0000000        0.0000000
  2152.9900        6.0116600        6.0116600       0.96602595E-01   0.92884811       -1.7802500       -6.5012500        1.0000000        0.0000000
  2153.0900        5.7908100        5.7908100       0.96652199E-01   0.92886328       -2.5459000       -4.3932500        1.0000000        0.0000000
  2153.1900        5.5024800        5.5024800       0.96701803E-01   0.92887845       -2.6589000       -1.1330000        1.0000000        0.0000000
  2153.2900        5.2590300        5.2590300       0.96751407E-01   0.92889363       -2.7725000       -2.0085000        1.0000000        0.0000000
  2153.3900        4.9479800        4.9479800       0.96801011E-01   0.92890880       -3.0606000       -1.3487500        1.0000000        0.0000000
  2153.4900        4.6469100        4.6469100       0.96850615E-01   0.92892397       -3.0422500       0.47650000        1.0000000        0.0000000
  2153.5900        4.3395300        4.3395300       0.96900219E-01   0.92893914       -2.9653000       0.51525000        1.0000000        0.0000000
  2153.6900        4.0538500        4.0538500       0.96949823E-01   0.92895431       -2.9392000       0.77675000        1.0000000        0.0000000
  2153.7900        3.7516900        3.7516900       0.96999427E-01   0.92896948       -2.8099500        1.9572500        1.0000000        0.0000000
  2153.8900        3.4918600        3.4918600       0.97049031E-01   0.92898465       -2.5477500        1.9705000        1.0000000        0.0000000
  2153.9900        3.2421400        3.2421400       0.97098634E-01   0.92899982       -2.4158500        2.2662500        1.0000000        0.0000000
  2154.0900        3.0086900        1.1618578       0.97148238E-01   0.92901499       -2.0945000        2.9950000        1.0000000        2.2200233
  2154.1900        2.8232400        1.1736235       0.97197842E-01   0.92903016       -1.8168500        2.5290000        1.0000000        1.9829559
  2154.2900        2.6453200        1.1852205       0.97247446E-01   0.92904533       -1.5887000        2.3622500        1.0000000        1.7551430
  2154.3900        2.5055000        1.1966497       0.97297050E-01   0.92906051       -1.3444000        2.1735000        1.0000000        1.5733309
  2154.4900        2.3764400        1.2079119       0.97346654E-01   0.92907568       -1.1540000        1.9037500        1.0000000        1.4046536
  2154.5900        2.2747000        1.2190080       0.97396258E-01   0.92909085      -0.96365000        1.5945000        1.0000000        1.2690166
  2154.6900        2.1837100        1.2299390       0.97445862E-01   0.92910602      -0.83510000        1.2525000        1.0000000        1.1465003
  2154.7900        2.1076800        1.2407058       0.97495466E-01   0.92912119      -0.71315000        1.1365000        1.0000000        1.0421645
  2154.8900        2.0410800        1.2513093       0.97545070E-01   0.92913636      -0.60780000       0.85525000        1.0000000       0.94936040
  2154.9900        1.9861200        1.2617503       0.97594674E-01   0.92915153      -0.54210000       0.58550000        1.0000000       0.87074367
  2155.0900        1.9326600        1.2720299       0.97644278E-01   0.92916670      -0.49070000       0.82275000        1.0000000       0.79412415
  2155.1900        1.8879800        1.2821490       0.97693882E-01   0.92918187      -0.37755000       0.62325000        1.0000000       0.72825184
  2155.2900        1.8571500        1.2921083       0.97743486E-01   0.92919704      -0.36605000      -0.15400000        1.0000000       0.67922013
  2155.3900        1.8147700        1.3019090       0.97793090E-01   0.92921221      -0.40835000       0.64850000        1.0000000       0.61649533
  2155.4900        1.7754800        1.3115517       0.97842694E-01   0.92922739      -0.23635000        1.2922500        1.0000000       0.55767465
  2155.5900        1.7675000        1.3210376       0.97892297E-01   0.92924256      -0.14990000      -0.50500000E-01    1.0000000       0.53667945
  2155.6900        1.7455000        1.3303674       0.97941901E-01   0.92925773      -0.24645000      -0.33775000        1.0000000       0.49901876
  2155.7900        1.7182100        1.3395422       0.97991505E-01   0.92927290      -0.21745000       0.22125000        1.0000000       0.45518555
  2155.8900        1.7020100        1.3485628       0.98041109E-01   0.92928807      -0.20220000       0.21600000        1.0000000       0.42486865
  2155.9900        1.6777700        1.3574300       0.98090713E-01   0.92930324      -0.17425000       0.22350000        1.0000000       0.38507135
  2156.0900        1.6671600        1.3661450       0.98140317E-01   0.92931841      -0.15750000       0.12125000        1.0000000       0.36184142
  2156.1900        1.6462700        1.3747084       0.98189921E-01   0.92933358      -0.15000000       0.21050000        1.0000000       0.32643627
  2156.2900        1.6371600        1.3831213       0.98239525E-01   0.92934875      -0.11540000       0.15250000        1.0000000       0.30537247
  2156.3900        1.6231900        1.3913846       0.98289129E-01   0.92936392      -0.11950000      -0.10700000        1.0000000       0.27864647
  2156.4900        1.6132600        1.3994992       0.98338733E-01   0.92937909      -0.13680000      -0.26925000        1.0000000       0.25695560
  2156.5900        1.5958300        1.4074660       0.98388337E-01   0.92939427      -0.17335000      -0.26925000        1.0000000       0.22642687
  2156.6900        1.5785900        1.4152859       0.98437941E-01   0.92940944      -0.19065000       0.43450000        1.0000000       0.19630311
  2156.7900        1.5577000        1.4229598       0.98487545E-01   0.92942461      -0.86450000E-01   0.73975000        1.0000000       0.16196727
  2156.8900        1.5613000        1.4304886       0.98537149E-01   0.92943978      -0.42700000E-01  -0.35200000        1.0000000       0.15724453
  2156.9900        1.5491600        1.4378733       0.98586753E-01   0.92945495      -0.15685000      -0.70375000        1.0000000       0.13377448
  2157.0900        1.5299300        1.4451148       0.98636356E-01   0.92947012      -0.18345000       0.26825000        1.0000000       0.10195394
  2157.1900        1.5124700        1.4522139       0.98685960E-01   0.92948529      -0.10320000       0.43050000        1.0000000       0.72432154E-01
  2157.2900        1.5092900        1.4591715       0.98735564E-01   0.92950046      -0.97350000E-01  -0.25225000        1.0000000       0.60245940E-01
  2157.3900        1.4930000        1.4659887       0.98785168E-01   0.92951563      -0.15365000      -0.25600000        1.0000000       0.32469478E-01
  2157.4900        1.4785600        1.4726663       0.98834772E-01   0.92953080      -0.14855000       0.68750000E-01    1.0000000       0.70846514E-02
  2157.5900        1.4632900        1.4792052       0.98884376E-01   0.92954597      -0.13990000       0.92500000E-01    1.0000000      -0.19131185E-01
  2157.6900        1.4505800        1.4856063       0.98933980E-01   0.92956115      -0.13005000       0.53500000E-01    1.0000000      -0.42104107E-01
  2157.7900        1.4372800        1.4918706       0.98983584E-01   0.92957632      -0.12920000      -0.10150000        1.0000000      -0.65621735E-01
  2157.8900        1.4247400        1.4979989       0.99033188E-01   0.92959149      -0.15035000      -0.15150000        1.0000000      -0.88062369E-01
  2157.9900        1.4072100        1.5039922       0.99082792E-01   0.92960666      -0.15950000       0.89000000E-01    1.0000000      -0.11633901
  2158.0900        1.3928400        1.5098513       0.99132396E-01   0.92962183      -0.13255000      -0.32000000E-01    1.0000000      -0.14065589
  2158.1900        1.3807000        1.5155772       0.99182000E-01   0.92963700      -0.16590000      -0.25075000        1.0000000      -0.16213201
  2158.2900        1.3596600        1.5211709       0.99231604E-01   0.92965217      -0.18270000       0.47250000E-01    1.0000000      -0.19414753
  2158.3900        1.3441600        1.5266331       0.99281208E-01   0.92966734      -0.15645000       0.29975000        1.0000000      -0.21934564
  2158.4900        1.3283700        1.5319649       0.99330812E-01   0.92968251      -0.12275000       0.23950000        1.0000000      -0.24473550
  2158.5900        1.3196100        1.5371671       0.99380416E-01   0.92969768      -0.10855000      -0.14000000E-01    1.0000000      -0.26151906
  2158.6900        1.3066600        1.5422407       0.99430019E-01   0.92971285      -0.12555000      -0.21300000        1.0000000      -0.28318465
  2158.7900        1.2945000        1.5471865       0.99479623E-01   0.92972802      -0.15115000      -0.28750000E-01    1.0000000      -0.30374705
  2158.8900        1.2764300        1.5520055       0.99529227E-01   0.92974320      -0.13130000       0.33275000        1.0000000      -0.33126123
  2158.9900        1.2682400        1.5566985       0.99578831E-01   0.92975837      -0.84600000E-01   0.34325000        1.0000000      -0.34674759
  2159.0900        1.2595100        1.5612666       0.99628435E-01   0.92977354      -0.62650000E-01   0.13700000        1.0000000      -0.36273280
  2159.1900        1.2557100        1.5657105       0.99678039E-01   0.92978871      -0.57200000E-01   0.83500000E-01    1.0000000      -0.37264263
  2159.2900        1.2480700        1.5700313       0.99727643E-01   0.92980388      -0.45950000E-01  -0.54500000E-01    1.0000000      -0.38702034
  2159.3900        1.2465200        1.5742298       0.99777247E-01   0.92981905      -0.68100000E-01   0.10825000        1.0000000      -0.39393047
  2159.4900        1.2344500        1.5783070       0.99826851E-01   0.92983422      -0.24300000E-01   0.31825000        1.0000000      -0.41334050
  2159.5900        1.2416600        1.5822637       0.99876455E-01   0.92984939      -0.44500000E-02  -0.27350000        1.0000000      -0.40942982
  2159.6900        1.2335600        1.5861009       0.99926059E-01   0.92986456      -0.79000000E-01   0.26250000E-01    1.0000000      -0.42377915
  2159.7900        1.2258600        1.5898195       0.99975663E-01   0.92987973       0.80000000E-03   0.59350000        1.0000000      -0.43750507
  2159.8900        1.2337200        1.5934203       0.10002527       0.92989490       0.39700000E-01  -0.76000000E-01    1.0000000      -0.43238527
  2159.9900        1.2338000        1.5969044       0.10007487       0.92991008      -0.14400000E-01  -0.12750000        1.0000000      -0.43647718
  2160.0900        1.2308400        1.6002725       0.10012447       0.92992525       0.14200000E-01   0.23900000        1.0000000      -0.44408409
  2160.1900        1.2366400        1.6035257       0.10017408       0.92994042       0.33400000E-01   0.29275000        1.0000000      -0.44102265
  2160.2900        1.2375200        1.6066649       0.10022368       0.92995559       0.72750000E-01   0.28825000        1.0000000      -0.44373828
  2160.3900        1.2511900        1.6096908       0.10027329       0.92997076       0.91050000E-01  -0.15241667        1.0000000      -0.43094342
  2160.4900        1.2557300        1.6126046       0.10032289       0.92998593       0.42266667E-01  -0.43516667E-01    1.0000000      -0.42898854
  2160.9900        1.2765500        1.6255217       0.10057091       0.93006178       0.64940000E-01   0.45063333E-01    1.0000000      -0.41948867
  2161.4900        1.3206700        1.6357696       0.10081893       0.93013764       0.87330000E-01   0.27210000E-01    1.0000000      -0.37877203
  2161.9900        1.3638800        1.6434624       0.10106695       0.93021349       0.92150000E-01  -0.15000000E-03    1.0000000      -0.33607781
  2162.4900        1.4128200        1.6487140       0.10131497       0.93028935       0.87180000E-01  -0.57100000E-02    1.0000000      -0.28356128
  2162.9900        1.4510600        1.6516384       0.10156299       0.93036520       0.86440000E-01   0.50700000E-02    1.0000000      -0.24110949
  2163.4900        1.4992600        1.6523497       0.10181101       0.93044106       0.92250000E-01   0.16700000E-02    1.0000000      -0.18402470
  2163.9900        1.5433100        1.6509618       0.10205903       0.93051691       0.88110000E-01  -0.79400000E-02    1.0000000      -0.12940515
  2164.4900        1.5873700        1.6475888       0.10230705       0.93059277       0.84310000E-01   0.48000000E-03    1.0000000      -0.72387254E-01
  2164.9900        1.6276200        1.6423446       0.10255507       0.93066862       0.88590000E-01   0.39000000E-02    1.0000000      -0.17699958E-01
  2165.4900        1.6759600        1.6353431       0.10280309       0.93074447       0.88210000E-01  -0.17170000E-01    1.0000000       0.48824351E-01
  2165.9900        1.7158300        1.6266985       0.10305111       0.93082033       0.71420000E-01  -0.42030000E-01    1.0000000       0.10714235
  2166.4900        1.7473800        1.6165247       0.10329913       0.93089618       0.46180000E-01  -0.38730000E-01    1.0000000       0.15729732
  2166.9900        1.7620100        1.6049357       0.10354715       0.93097204       0.32690000E-01  -0.10430000E-01    1.0000000       0.18881441
  2167.4900        1.7800700        1.5920455       0.10379517       0.93104789       0.35750000E-01  -0.22130000E-01    1.0000000       0.22601875
  2167.9900        1.7977600        1.5779681       0.10404319       0.93112375       0.10560000E-01  -0.47410000E-01    1.0000000       0.26420543
  2168.4900        1.7906300        1.5628175       0.10429121       0.93119960      -0.11660000E-01  -0.43000000E-01    1.0000000       0.27384679
  2168.9900        1.7861000        1.5467076       0.10453922       0.93127546      -0.32440000E-01  -0.42920000E-01    1.0000000       0.28776658
  2169.4900        1.7581900        1.5297526       0.10478724       0.93135131      -0.54580000E-01  -0.48100000E-02    1.0000000       0.27459797
  2169.9900        1.7315200        1.5120663       0.10503526       0.93142716      -0.37250000E-01   0.56100000E-02    1.0000000       0.26379891
  2170.4900        1.7209400        1.4937628       0.10528328       0.93150302      -0.48970000E-01  -0.32720000E-01    1.0000000       0.27308313
  2170.9900        1.6825500        1.4749560       0.10553130       0.93157887      -0.69970000E-01  -0.27630000E-01    1.0000000       0.24954268
  2171.4900        1.6509700        1.4557600       0.10577932       0.93165473      -0.76600000E-01  -0.10770000E-01    1.0000000       0.23465623
  2171.9900        1.6059500        1.4362888       0.10602734       0.93173058      -0.80740000E-01  -0.19100000E-02    1.0000000       0.20394481
  2172.4900        1.5702300        1.4166563       0.10627536       0.93180644      -0.78510000E-01  -0.10380000E-01    1.0000000       0.18460648
  2172.9900        1.5274400        1.3969766       0.10652338       0.93188229      -0.91120000E-01  -0.37800000E-02    1.0000000       0.15682631
  2173.4900        1.4791100        1.3773636       0.10677140       0.93195815      -0.82290000E-01   0.13030000E-01    1.0000000       0.12230644
  2173.9900        1.4451500        1.3579313       0.10701942       0.93203400      -0.78090000E-01  -0.31300000E-02    1.0000000       0.10484308
  2174.4900        1.4010200        1.3387938       0.10726744       0.93210986      -0.85420000E-01  -0.19500000E-02    1.0000000       0.74800358E-01
  2174.9900        1.3597300        1.3200648       0.10751546       0.93218571      -0.80040000E-01   0.10850000E-01    1.0000000       0.47680329E-01
  2175.4900        1.3209800        1.3018265       0.10776348       0.93226156      -0.74570000E-01   0.27900000E-02    1.0000000       0.23023871E-01
  2175.9900        1.2851600        1.2840841       0.10801150       0.93233742      -0.77250000E-01  -0.24200000E-02    1.0000000       0.12933389E-02
  2176.4900        1.2437300        1.2668317       0.10825952       0.93241327      -0.76990000E-01   0.10430000E-01    1.0000000      -0.27769903E-01
  2176.9900        1.2081700        1.2500636       0.10850754       0.93248913      -0.66820000E-01   0.19360000E-01    1.0000000      -0.50359031E-01
  2177.4900        1.1769100        1.2337737       0.10875556       0.93256498      -0.57630000E-01   0.10410000E-01    1.0000000      -0.68354246E-01
  2177.9900        1.1505400        1.2179564       0.10900358       0.93264084      -0.56410000E-01   0.63900000E-02    1.0000000      -0.81039276E-01
  2178.4900        1.1205000        1.2026056       0.10925160       0.93271669      -0.51240000E-01   0.14060000E-01    1.0000000      -0.98696798E-01
  2178.9900        1.0993000        1.1877156       0.10949962       0.93279255      -0.42350000E-01   0.17390000E-01    1.0000000      -0.10628185
  2179.4900        1.0781500        1.1732805       0.10974764       0.93286840      -0.33850000E-01   0.14010000E-01    1.0000000      -0.11435360
  2179.9900        1.0654500        1.1592944       0.10999566       0.93294425      -0.28340000E-01  -0.30000000E-03    1.0000000      -0.11280759
  2180.4900        1.0498100        1.1457514       0.11024368       0.93302011      -0.34150000E-01   0.22500000E-02    1.0000000      -0.11532835
  2180.9900        1.0313000        1.1326457       0.11049170       0.93309596      -0.26090000E-01   0.15460000E-01    1.0000000      -0.12182470
  2181.4900        1.0237200        1.1199714       0.11073972       0.93317182      -0.18690000E-01   0.69200000E-02    1.0000000      -0.11570101
  2181.9900        1.0126100        1.1077227       0.11098774       0.93324767      -0.19170000E-01   0.89200000E-03    1.0000000      -0.11433216
  2182.4900        1.0045500        1.0958936       0.11123576       0.93332353      -0.17798000E-01   0.87720000E-02    1.0000000      -0.10980149
  2182.9900       0.99481200        1.0844784       0.11148378       0.93339938      -0.10398000E-01   0.11056000E-01    1.0000000      -0.10778534
  2183.4900       0.99415200        1.0734711       0.11173180       0.93347524      -0.67420000E-02   0.29260000E-02    1.0000000      -0.95347174E-01
  2183.9900       0.98807000        1.0628659       0.11197982       0.93355109      -0.74720000E-02   0.30100000E-03    1.0000000      -0.89909978E-01
  2184.4900       0.98668000        1.0526569       0.11222783       0.93362694      -0.64410000E-02  -0.43350000E-02    1.0000000      -0.79308955E-01
  2184.9900       0.98162900        1.0428383       0.11247585       0.93370280      -0.11807000E-01   0.36130000E-02    1.0000000      -0.73577952E-01
  2185.4900       0.97487300        1.0334042       0.11272387       0.93377865      -0.28280000E-02   0.11878000E-01    1.0000000      -0.70358671E-01
  2185.9900       0.97880100        1.0243487       0.11297189       0.93385451       0.71000000E-04  -0.89910000E-02    1.0000000      -0.54751602E-01
  2186.4900       0.97494400        1.0156660       0.11321991       0.93393036      -0.11819000E-01  -0.84450000E-02    1.0000000      -0.48950745E-01
  2186.9900       0.96698200        1.0073502       0.11346793       0.93400622      -0.83740000E-02  -0.83200000E-03    1.0000000      -0.48525428E-01
  2187.4900       0.96657000       0.99939541       0.11371595       0.93408207      -0.12651000E-01   0.75160000E-02    1.0000000      -0.39458464E-01
  2187.9900       0.95433100       0.99179579       0.11396397       0.93415793      -0.85800000E-03   0.20423000E-01    1.0000000      -0.45035331E-01
  2188.4900       0.96571200       0.98454548       0.11421199       0.93423378       0.77720000E-02  -0.93390000E-02    1.0000000      -0.22639172E-01
  2188.9900       0.96210300       0.97763860       0.11446001       0.93430963      -0.10197000E-01  -0.20416000E-01    1.0000000      -0.18674894E-01
  2189.4900       0.95551500       0.97106930       0.11470803       0.93438549      -0.12644000E-01   0.79200000E-03    1.0000000      -0.18697373E-01
  2189.9900       0.94945900       0.96483171       0.11495605       0.93446134      -0.94050000E-02   0.13731000E-01    1.0000000      -0.18479088E-01
  2190.4900       0.94611000       0.95891996       0.11520407       0.93453720       0.10870000E-02   0.14560000E-02    1.0000000      -0.15398485E-01
  2190.9900       0.95054600       0.95332820       0.11545209       0.93461305      -0.79490000E-02  -0.69730000E-02    1.0000000      -0.33443982E-02
  2191.4900       0.93816100       0.94805054       0.11570011       0.93468891      -0.58860000E-02   0.90610000E-02    1.0000000      -0.11887933E-01
  2191.9900       0.94466000       0.94308114       0.11594813       0.93476476       0.11120000E-02  -0.35930000E-02    1.0000000       0.18979018E-02
  2192.4900       0.93927300       0.93841412       0.11619615       0.93484062      -0.94790000E-02  -0.65550000E-02    1.0000000       0.10324347E-02
  2192.9900       0.93518100       0.93404362       0.11644417       0.93491647      -0.54430000E-02   0.14410000E-02    1.0000000       0.13672125E-02
  2193.4900       0.93383000       0.92996377       0.11669219       0.93499232      -0.80380000E-02   0.13470000E-02    1.0000000       0.46474798E-02
  2193.9900       0.92714300       0.92616871       0.11694021       0.93506818      -0.40960000E-02   0.13406000E-01    1.0000000       0.11711602E-02
  2194.4900       0.92973400       0.92265258       0.11718823       0.93514403       0.53680000E-02  -0.66900000E-03    1.0000000       0.85123677E-02
  2194.9900       0.93251100       0.91940951       0.11743625       0.93521989      -0.47650000E-02  -0.15756000E-01    1.0000000       0.15748924E-01
  2195.4900       0.92496900       0.91643363       0.11768427       0.93529574      -0.10388000E-01  -0.58800000E-03    1.0000000       0.10260125E-01
  2195.9900       0.92212300       0.91371907       0.11793229       0.93537160      -0.53530000E-02   0.86200000E-02    1.0000000       0.10102114E-01
  2196.4900       0.91961600       0.91125999       0.11818031       0.93544745      -0.17680000E-02   0.64150000E-02    1.0000000       0.10044520E-01
  2196.9900       0.92035500       0.90905050       0.11842833       0.93552331       0.10620000E-02   0.17460000E-02    1.0000000       0.13588812E-01
  2197.4900       0.92067800       0.90708474       0.11867635       0.93559916      -0.22000000E-04  -0.10029000E-01    1.0000000       0.16340057E-01
  2197.9900       0.92033300       0.90535686       0.11892437       0.93567502      -0.89670000E-02  -0.71640000E-02    1.0000000       0.18002384E-01
  2198.4900       0.91171100       0.90386098       0.11917239       0.93575087      -0.71860000E-02   0.16514000E-01    1.0000000       0.94362840E-02
  2198.9900       0.91314700       0.90259123       0.11942041       0.93582672       0.75470000E-02   0.13841000E-01    1.0000000       0.12688778E-01
  2199.4900       0.91925800       0.90154177       0.11966842       0.93590258       0.66550000E-02  -0.82270000E-02    1.0000000       0.21296169E-01
  2199.9900       0.91980200       0.90070671       0.11991644       0.93597843      -0.68000000E-03  -0.98643333E-02    1.0000000       0.22953896E-01
  2200.4900       0.91857800       0.90008019       0.12016446       0.93605429      -0.32093333E-02  -0.53300000E-03    1.0000000       0.22235677E-01
  2201.4900       0.91498800       0.89942933       0.12066050       0.93620600      -0.14795000E-02   0.23396667E-02    1.0000000       0.18702622E-01
  2202.4900       0.91561900       0.89954227       0.12115654       0.93635771       0.14700000E-02   0.21832500E-02    1.0000000       0.19325371E-01
  2203.4900       0.91792800       0.90037208       0.12165258       0.93650941       0.28870000E-02  -0.55500000E-04    1.0000000       0.21103460E-01
  2204.4900       0.92139300       0.90187185       0.12214862       0.93666112       0.13590000E-02  -0.86675000E-03    1.0000000       0.23465808E-01
  2205.4900       0.92064600       0.90399465       0.12264466       0.93681283       0.11535000E-02   0.11315000E-02    1.0000000       0.20016101E-01
  2206.4900       0.92370000       0.90669357       0.12314070       0.93696454       0.36220000E-02   0.21192500E-02    1.0000000       0.20442934E-01
  2207.4900       0.92789000       0.90992168       0.12363674       0.93711625       0.53920000E-02  -0.54375000E-03    1.0000000       0.21599189E-01
  2208.4900       0.93448400       0.91363207       0.12413278       0.93726796       0.25345000E-02  -0.25952500E-02    1.0000000       0.25065493E-01
  2209.4900       0.93295900       0.91777782       0.12462882       0.93741967       0.20150000E-03   0.11177500E-02    1.0000000       0.18248856E-01
  2210.4900       0.93488700       0.92231200       0.12512486       0.93757138       0.47700000E-02   0.15552500E-02    1.0000000       0.15116044E-01
  2211.4900       0.94249900       0.92718769       0.12562090       0.93772309       0.33120000E-02  -0.20470000E-02    1.0000000       0.18405276E-01
  2212.4900       0.94151100       0.93235798       0.12611694       0.93787479       0.67600000E-03   0.19350000E-03    1.0000000       0.11002575E-01
  2213.4900       0.94385100       0.93777595       0.12661298       0.93802650       0.36990000E-02   0.20440000E-02    1.0000000       0.73026435E-02
  2214.4900       0.94890900       0.94339467       0.12710902       0.93817821       0.47640000E-02  -0.11415000E-02    1.0000000       0.66286187E-02
  2215.4900       0.95337900       0.94916722       0.12760505       0.93832992       0.14160000E-02  -0.10270000E-02    1.0000000       0.50628558E-02
  2216.4900       0.95174100       0.95504669       0.12810109       0.93848163       0.27100000E-02   0.18752500E-02    1.0000000      -0.39736750E-02
  2217.4900       0.95879900       0.96098616       0.12859713       0.93863334       0.51665000E-02   0.19530000E-02    1.0000000      -0.26291153E-02
  2218.4900       0.96207400       0.96693869       0.12909317       0.93878505       0.66160000E-02   0.56200000E-03    1.0000000      -0.58477064E-02
  2219.4900       0.97203100       0.97285739       0.12958921       0.93893676       0.62905000E-02   0.17350000E-03    1.0000000      -0.99337512E-03
  2220.4900       0.97465500       0.97869531       0.13008525       0.93908847       0.69630000E-02  -0.39500000E-03    1.0000000      -0.48567437E-02
  2221.4900       0.98595700       0.98440556       0.13058129       0.93924017       0.55005000E-02  -0.24332500E-02    1.0000000       0.18649460E-02
  2222.4900       0.98565600       0.98994119       0.13107733       0.93939188       0.20965000E-02  -0.91500000E-03    1.0000000      -0.51511043E-02
  2223.4900       0.99015000       0.99525530       0.13157337       0.93954359       0.36705000E-02  -0.54000000E-04    1.0000000      -0.61369351E-02
  2224.4900       0.99299700        1.0003010       0.13206941       0.93969530       0.19885000E-02   0.43550000E-03    1.0000000      -0.87798856E-02
  2225.4900       0.99412700        1.0050313       0.13256545       0.93984701       0.45415000E-02   0.17390000E-02    1.0000000      -0.13107700E-01
  2226.4900        1.0020800        1.0093993       0.13306149       0.93999872       0.54665000E-02   0.89925000E-03    1.0000000      -0.87982908E-02
  2227.4900        1.0050600        1.0133581       0.13355753       0.94015043       0.63400000E-02   0.65175000E-03    1.0000000      -0.99748856E-02
  2228.4900        1.0147600        1.0168608       0.13405357       0.94030214       0.67700000E-02  -0.33800000E-02    1.0000000      -0.25252682E-02
  2229.4900        1.0186000        1.0198604       0.13454961       0.94045385      -0.42000000E-03  -0.45850000E-02    1.0000000      -0.15150889E-02
  2230.4900        1.0139200        1.0223101       0.13504564       0.94060556      -0.24000000E-02   0.89000000E-03    1.0000000      -0.10085455E-01
  2231.4900        1.0138000        1.0241628       0.13554168       0.94075726       0.13600000E-02   0.13075000E-02    1.0000000      -0.12456878E-01
  2232.4900        1.0166400        1.0253718       0.13603772       0.94090897       0.21500000E-03  -0.50250000E-03    1.0000000      -0.10496271E-01
  2233.4900        1.0142300        1.0258901       0.13653376       0.94106068       0.35500000E-03   0.14250000E-03    1.0000000      -0.14016233E-01
  2234.4900        1.0173500        1.0256707       0.13702980       0.94121239       0.50000000E-03   0.65750000E-03    1.0000000      -0.10002041E-01
  2235.4900        1.0152300        1.0246667       0.13752584       0.94136410       0.16700000E-02  -0.27250000E-03    1.0000000      -0.11343594E-01
  2236.4900        1.0206900        1.0228313       0.13802188       0.94151581      -0.45000000E-04  -0.25000000E-02    1.0000000      -0.25739449E-02
  2237.4900        1.0151400        1.0201174       0.13851792       0.94166752      -0.33300000E-02  -0.53250000E-03    1.0000000      -0.59831886E-02
  2238.4900        1.0140300        1.0164782       0.13901396       0.94181923      -0.11100000E-02   0.22200000E-02    1.0000000      -0.29429292E-02
