# XDI/1.0 Athena/0.9.26
# Element.edge:                  K
# Element.symbol:                P
# Column.1:                      energy eV
# Column.2:                      xmu
# Column.3:                      bkg
# Column.4:                      pre_edge
# Column.5:                      post_edge
# Column.6:                      der
# Column.7:                      sec
# Column.8:                      i0
# Column.9:                      chi(e)
# Athena.e0:                     2154
# Athena.eshift:                 0.46
# Athena.rbkg:                   1.0
# Athena.importance:             1
# Athena.standard:               None
# Athena.bkg_kweight:            2
# Athena.edge_step:              1.3562675
# Athena.fixed_step:             no
# Athena.pre_edge_range:         -13 -9.5
# Athena.pre_edge_line:          -9.831874 + 0.00468196 * E
# Athena.normalization_range:    26.5 80
# Athena.post_edge_polynomial:   -8.002248 + 0.00446221 * E + 0 * E^2 + 0 * E^3
# Athena.spline_range_energy:    0.000 85.601
# Athena.clamps:                 0 24
# Athena.spline_range_k:         0.000 4.740
# Athena.kweight:                2
# Athena.window:                 hanning
# Athena.phase_correction:       no
# Athena.k_range:                2.740 3.000
# Athena.dk:                     1
# Athena.r_range:                1 3
# Athena.dr:                     0.0
# Athena.window:                 hanning
# Athena.plot_multiplier:        1
# Athena.y_offset:               0
# ///
#------------------------
#   e         xmu        bkg        pre_edge        post_edge        der        sec        i0        chie
  2125.4600       0.19658700       0.19658700       0.11945089        1.4819902      -0.16430000E-02   0.50062500E-03    1.0000000        0.0000000
  2127.4600       0.19330100       0.19330100       0.12881482        1.4909146      -0.64175000E-03   0.25906250E-03    1.0000000        0.0000000
  2129.4600       0.19402000       0.19402000       0.13817874        1.4998391      -0.60675000E-03  -0.14212500E-03    1.0000000        0.0000000
  2131.4600       0.19087400       0.19087400       0.14754267        1.5087635      -0.12102500E-02   0.15281250E-03    1.0000000        0.0000000
  2133.4600       0.18917900       0.18917900       0.15690660        1.5176879       0.45000000E-05   0.23462500E-03    1.0000000        0.0000000
  2135.4600       0.19089200       0.19089200       0.16627052        1.5266123      -0.27175000E-03  -0.30437500E-04    1.0000000        0.0000000
  2137.4600       0.18809200       0.18809200       0.17563445        1.5355367      -0.11725000E-03   0.49810417E-03    1.0000000        0.0000000
  2139.4600       0.19042300       0.19042300       0.18499837        1.5444611       0.17206667E-02   0.13582500E-02    1.0000000        0.0000000
  2140.4600       0.19325400       0.19325400       0.18968033        1.5489233       0.39575000E-02  -0.34672222E-02    1.0000000        0.0000000
  2140.6600       0.19517200       0.19517200       0.19061673        1.5498158      -0.24400000E-02  -0.35558333E-01    1.0000000        0.0000000
  2140.7600       0.19252200       0.19252200       0.19108492        1.5502620      -0.67100000E-02   0.38775000E-01    1.0000000        0.0000000
  2140.8600       0.19383000       0.19383000       0.19155312        1.5507082       0.53150000E-02   0.18250000E-01    1.0000000        0.0000000
  2140.9600       0.19358500       0.19358500       0.19202132        1.5511544      -0.30600000E-02   0.42500000E-03    1.0000000        0.0000000
  2141.0600       0.19321800       0.19321800       0.19248951        1.5516006       0.54000000E-02   0.11750000E-01    1.0000000        0.0000000
  2141.1600       0.19466500       0.19466500       0.19295771        1.5520469      -0.71000000E-03  -0.25275000E-01    1.0000000        0.0000000
  2141.2600       0.19307600       0.19307600       0.19342590        1.5524931       0.34500000E-03   0.93850000E-01    1.0000000        0.0000000
  2141.3600       0.19473400       0.19473400       0.19389410        1.5529393       0.18060000E-01   0.29750000E-02    1.0000000        0.0000000
  2141.4600       0.19668800       0.19668800       0.19436230        1.5533855       0.94000000E-03  -0.91925000E-01    1.0000000        0.0000000
  2141.5600       0.19492200       0.19492200       0.19483049        1.5538317      -0.32500000E-03   0.25025000E-01    1.0000000        0.0000000
  2141.6600       0.19662300       0.19662300       0.19529869        1.5542780       0.59450000E-02  -0.41450000E-01    1.0000000        0.0000000
  2141.7600       0.19611100       0.19611100       0.19576689        1.5547242      -0.86150000E-02  -0.59700000E-01    1.0000000        0.0000000
  2141.8600       0.19490000       0.19490000       0.19623508        1.5551704      -0.59950000E-02   0.44825000E-01    1.0000000        0.0000000
  2141.9600       0.19491200       0.19491200       0.19670328        1.5556166       0.35000000E-03   0.64150000E-01    1.0000000        0.0000000
  2142.0600       0.19497000       0.19497000       0.19717147        1.5560628       0.68350000E-02   0.73850000E-01    1.0000000        0.0000000
  2142.1600       0.19627900       0.19627900       0.19763967        1.5565091       0.15120000E-01   0.33925000E-01    1.0000000        0.0000000
  2142.2600       0.19799400       0.19799400       0.19810787        1.5569553       0.13620000E-01  -0.34250000E-01    1.0000000        0.0000000
  2142.3600       0.19900300       0.19900300       0.19857606        1.5574015       0.82700000E-02  -0.90675000E-01    1.0000000        0.0000000
  2142.4600       0.19964800       0.19964800       0.19904426        1.5578477      -0.45150000E-02  -0.79900000E-01    1.0000000        0.0000000
  2142.5600       0.19810000       0.19810000       0.19951246        1.5582939      -0.77100000E-02   0.13450000E-01    1.0000000        0.0000000
  2142.6600       0.19810600       0.19810600       0.19998065        1.5587402      -0.18250000E-02   0.80525000E-01    1.0000000        0.0000000
  2142.7600       0.19773500       0.19773500       0.20044885        1.5591864       0.83950000E-02   0.95025000E-01    1.0000000        0.0000000
  2142.8600       0.19978500       0.19978500       0.20091704        1.5596326       0.17180000E-01   0.75000000E-03    1.0000000        0.0000000
  2142.9600       0.20117100       0.20117100       0.20138524        1.5600788       0.85450000E-02  -0.43925000E-01    1.0000000        0.0000000
  2143.0600       0.20149400       0.20149400       0.20185344        1.5605250       0.83950000E-02   0.74725000E-01    1.0000000        0.0000000
  2143.1600       0.20285000       0.20285000       0.20232163        1.5609713       0.23490000E-01  -0.70400000E-01    1.0000000        0.0000000
  2143.2600       0.20619200       0.20619200       0.20278983        1.5614175      -0.56850000E-02  -0.20507500        1.0000000        0.0000000
  2143.3600       0.20171300       0.20171300       0.20325803        1.5618637      -0.17525000E-01   0.74775000E-01    1.0000000        0.0000000
  2143.4600       0.20268700       0.20268700       0.20372622        1.5623099       0.92700000E-02   0.10385000        1.0000000        0.0000000
  2143.5600       0.20356700       0.20356700       0.20419442        1.5627562       0.32450000E-02  -0.29975000E-01    1.0000000        0.0000000
  2143.6600       0.20333600       0.20333600       0.20466261        1.5632024       0.32750000E-02  -0.58250000E-02    1.0000000        0.0000000
  2143.7600       0.20422200       0.20422200       0.20513081        1.5636486       0.20800000E-02   0.44125000E-01    1.0000000        0.0000000
  2143.8600       0.20375200       0.20375200       0.20559901        1.5640948       0.12100000E-01   0.91600000E-01    1.0000000        0.0000000
  2143.9600       0.20664200       0.20664200       0.20606720        1.5645410       0.20400000E-01   0.28250000E-01    1.0000000        0.0000000
  2144.0600       0.20783200       0.20783200       0.20653540        1.5649873       0.17750000E-01  -0.72450000E-01    1.0000000        0.0000000
  2144.1600       0.21019200       0.21019200       0.20700360        1.5654335       0.59100000E-02  -0.11067500        1.0000000        0.0000000
  2144.2600       0.20901400       0.20901400       0.20747179        1.5658797      -0.43850000E-02  -0.37450000E-01    1.0000000        0.0000000
  2144.3600       0.20931500       0.20931500       0.20793999        1.5663259      -0.15800000E-02   0.86325000E-01    1.0000000        0.0000000
  2144.4600       0.20869800       0.20869800       0.20840818        1.5667721       0.12880000E-01   0.13062500        1.0000000        0.0000000
  2144.5600       0.21189100       0.21189100       0.20887638        1.5672184       0.24545000E-01   0.37250000E-02    1.0000000        0.0000000
  2144.6600       0.21360700       0.21360700       0.20934458        1.5676646       0.13625000E-01  -0.63000000E-01    1.0000000        0.0000000
  2144.7600       0.21461600       0.21461600       0.20981277        1.5681108       0.11945000E-01   0.44000000E-02    1.0000000        0.0000000
  2144.8600       0.21599600       0.21599600       0.21028097        1.5685570       0.14505000E-01  -0.28225000E-01    1.0000000        0.0000000
  2144.9600       0.21751700       0.21751700       0.21074917        1.5690032       0.63000000E-02  -0.38825000E-01    1.0000000        0.0000000
  2145.0600       0.21725600       0.21725600       0.21121736        1.5694495       0.67400000E-02   0.12025000E-01    1.0000000        0.0000000
  2145.1600       0.21886500       0.21886500       0.21168556        1.5698957       0.87050000E-02  -0.33250000E-02    1.0000000        0.0000000
  2145.2600       0.21899700       0.21899700       0.21215375        1.5703419       0.60750000E-02   0.52650000E-01    1.0000000        0.0000000
  2145.3600       0.22008000       0.22008000       0.21262195        1.5707881       0.19235000E-01   0.84225000E-01    1.0000000        0.0000000
  2145.4600       0.22284400       0.22284400       0.21309015        1.5712343       0.22920000E-01  -0.61000000E-02    1.0000000        0.0000000
  2145.5600       0.22466400       0.22466400       0.21355834        1.5716806       0.18015000E-01  -0.51425000E-01    1.0000000        0.0000000
  2145.6600       0.22644700       0.22644700       0.21402654        1.5721268       0.12635000E-01  -0.62250000E-01    1.0000000        0.0000000
  2145.7600       0.22719100       0.22719100       0.21449474        1.5725730       0.55650000E-02   0.49225000E-01    1.0000000        0.0000000
  2145.8600       0.22756000       0.22756000       0.21496293        1.5730192       0.22480000E-01   0.34200000E-01    1.0000000        0.0000000
  2145.9600       0.23168700       0.23168700       0.21543113        1.5734654       0.12405000E-01  -0.77050000E-01    1.0000000        0.0000000
  2146.0600       0.23004100       0.23004100       0.21589933        1.5739117       0.70700000E-02   0.71325000E-01    1.0000000        0.0000000
  2146.1600       0.23310100       0.23310100       0.21636752        1.5743579       0.26670000E-01   0.12527500        1.0000000        0.0000000
  2146.2600       0.23537500       0.23537500       0.21683572        1.5748041       0.32125000E-01   0.79000000E-02    1.0000000        0.0000000
  2146.3600       0.23952600       0.23952600       0.21730391        1.5752503       0.28250000E-01  -0.60650000E-01    1.0000000        0.0000000
  2146.4600       0.24102500       0.24102500       0.21777211        1.5756965       0.19995000E-01  -0.11950000E-01    1.0000000        0.0000000
  2146.5600       0.24352500       0.24352500       0.21824031        1.5761428       0.25860000E-01   0.54750000E-02    1.0000000        0.0000000
  2146.6600       0.24619700       0.24619700       0.21870850        1.5765890       0.21090000E-01   0.46500000E-02    1.0000000        0.0000000
  2146.7600       0.24774300       0.24774300       0.21917670        1.5770352       0.26790000E-01   0.54750000E-02    1.0000000        0.0000000
  2146.8600       0.25155500       0.25155500       0.21964490        1.5774814       0.22185000E-01  -0.15600000E-01    1.0000000        0.0000000
  2146.9600       0.25218000       0.25218000       0.22011309        1.5779276       0.23670000E-01   0.92600000E-01    1.0000000        0.0000000
  2147.0600       0.25628900       0.25628900       0.22058129        1.5783739       0.40705000E-01   0.44675000E-01    1.0000000        0.0000000
  2147.1600       0.26032100       0.26032100       0.22104948        1.5788201       0.32605000E-01   0.84500000E-02    1.0000000        0.0000000
  2147.2600       0.26281000       0.26281000       0.22151768        1.5792663       0.42395000E-01   0.25225000E-01    1.0000000        0.0000000
  2147.3600       0.26880000       0.26880000       0.22198588        1.5797125       0.37650000E-01  -0.61825000E-01    1.0000000        0.0000000
  2147.4600       0.27034000       0.27034000       0.22245407        1.5801588       0.30030000E-01   0.12575000E-01    1.0000000        0.0000000
  2147.5600       0.27480600       0.27480600       0.22292227        1.5806050       0.40165000E-01   0.46925000E-01    1.0000000        0.0000000
  2147.6600       0.27837300       0.27837300       0.22339047        1.5810512       0.39415000E-01   0.11585000        1.0000000        0.0000000
  2147.7600       0.28268900       0.28268900       0.22385866        1.5814974       0.63335000E-01   0.21825000E-01    1.0000000        0.0000000
  2147.8600       0.29104000       0.29104000       0.22432686        1.5819436       0.43780000E-01  -0.10807500        1.0000000        0.0000000
  2147.9600       0.29144500       0.29144500       0.22479505        1.5823899       0.41720000E-01   0.15902500        1.0000000        0.0000000
  2148.0600       0.29938400       0.29938400       0.22526325        1.5828361       0.75585000E-01   0.14295000        1.0000000        0.0000000
  2148.1600       0.30656200       0.30656200       0.22573145        1.5832823       0.70310000E-01  -0.10700000E-01    1.0000000        0.0000000
  2148.2600       0.31344600       0.31344600       0.22619964        1.5837285       0.73445000E-01  -0.68750000E-02    1.0000000        0.0000000
  2148.3600       0.32125100       0.32125100       0.22666784        1.5841747       0.68935000E-01  -0.32500000E-03    1.0000000        0.0000000
  2148.4600       0.32723300       0.32723300       0.22713604        1.5846210       0.73380000E-01   0.60075000E-01    1.0000000        0.0000000
  2148.5600       0.33592700       0.33592700       0.22760423        1.5850672       0.80950000E-01   0.19855000        1.0000000        0.0000000
  2148.6600       0.34342300       0.34342300       0.22807243        1.5855134       0.11309000       0.19442500        1.0000000        0.0000000
  2148.7600       0.35854500       0.35854500       0.22854062        1.5859596       0.11983500      -0.60275000E-01    1.0000000        0.0000000
  2148.8600       0.36739000       0.36739000       0.22900882        1.5864058       0.10103500       0.51375000E-01    1.0000000        0.0000000
  2148.9600       0.37875200       0.37875200       0.22947702        1.5868521       0.13011000       0.22540000        1.0000000        0.0000000
  2149.0600       0.39341200       0.39341200       0.22994521        1.5872983       0.14611500       0.40075000E-01    1.0000000        0.0000000
  2149.1600       0.40797500       0.40797500       0.23041341        1.5877445       0.13812500       0.24525000E-01    1.0000000        0.0000000
  2149.2600       0.42103700       0.42103700       0.23088161        1.5881907       0.15102000       0.28770000        1.0000000        0.0000000
  2149.3600       0.43817900       0.43817900       0.23134980        1.5886369       0.19566500       0.27555000        1.0000000        0.0000000
  2149.4600       0.46017000       0.46017000       0.23181800        1.5890832       0.20613000       0.18817500        1.0000000        0.0000000
  2149.5600       0.47940500       0.47940500       0.23228619        1.5895294       0.23330000       0.40972500        1.0000000        0.0000000
  2149.6600       0.50683000       0.50683000       0.23275439        1.5899756       0.28807500       0.47220000        1.0000000        0.0000000
  2149.7600       0.53702000       0.53702000       0.23322259        1.5904218       0.32774000       0.52237500        1.0000000        0.0000000
  2149.8600       0.57237800       0.57237800       0.23369078        1.5908680       0.39255000       0.75802500        1.0000000        0.0000000
  2149.9600       0.61553000       0.61553000       0.23415898        1.5913143       0.47934500       0.90902500        1.0000000        0.0000000
  2150.0600       0.66824700       0.66824700       0.23462718        1.5917605       0.57435500       0.96735000        1.0000000        0.0000000
  2150.1600       0.73040100       0.73040100       0.23509537        1.5922067       0.67281500        1.4839750        1.0000000        0.0000000
  2150.2600       0.80281000       0.80281000       0.23556357        1.5926529       0.87115000        2.0486750        1.0000000        0.0000000
  2150.3600       0.90463100       0.90463100       0.23603176        1.5930991        1.0825500        2.1899750        1.0000000        0.0000000
  2150.4600        1.0193200        1.0193200       0.23649996        1.5935454        1.3091450        2.6460000        1.0000000        0.0000000
  2150.5600        1.1664600        1.1664600       0.23696816        1.5939916        1.6117500        2.7725250        1.0000000        0.0000000
  2150.6600        1.3416700        1.3416700       0.23743635        1.5944378        1.8636500        2.3720000        1.0000000        0.0000000
  2150.7600        1.5391900        1.5391900       0.23790455        1.5948840        2.0861500        2.2015000        1.0000000        0.0000000
  2150.8600        1.7589000        1.7589000       0.23837275        1.5953302        2.3039500        2.7620000        1.0000000        0.0000000
  2150.9600        1.9999800        1.9999800       0.23884094        1.5957765        2.6385500        3.7580000        1.0000000        0.0000000
  2151.0600        2.2866100        2.2866100       0.23930914        1.5962227        3.0555500        4.9070000        1.0000000        0.0000000
  2151.1600        2.6110900        2.6110900       0.23977733        1.5966689        3.6199500        6.4690000        1.0000000        0.0000000
  2151.2600        3.0106000        3.0106000       0.24024553        1.5971151        4.3493500        9.0917500        1.0000000        0.0000000
  2151.3600        3.4809600        3.4809600       0.24071373        1.5975614        5.4383000        11.527250        1.0000000        0.0000000
  2151.4600        4.0982600        4.0982600       0.24118192        1.5980076        6.6548000        12.080000        1.0000000        0.0000000
  2151.5600        4.8119200        4.8119200       0.24165012        1.5984538        7.8543000        10.858000        1.0000000        0.0000000
  2151.6600        5.6691200        5.6691200       0.24211832        1.5989000        8.8264000        4.7637500        1.0000000        0.0000000
  2151.7600        6.5772000        6.5772000       0.24258651        1.5993462        8.8070500       -1.4895000        1.0000000        0.0000000
  2151.8600        7.4305300        7.4305300       0.24305471        1.5997925        8.5285000       -6.2472500        1.0000000        0.0000000
  2151.9600        8.2829000        8.2829000       0.24352290        1.6002387        7.5576000       -14.937750        1.0000000        0.0000000
  2152.0600        8.9420500        8.9420500       0.24399110        1.6006849        5.5409500       -20.272250        1.0000000        0.0000000
  2152.1600        9.3910900        9.3910900       0.24445930        1.6011311        3.5031500       -19.273750        1.0000000        0.0000000
  2152.2600        9.6426800        9.6426800       0.24492749        1.6015773        1.6862000       -18.208750        1.0000000        0.0000000
  2152.3600        9.7283300        9.7283300       0.24539569        1.6020236      -0.13860000       -15.916250        1.0000000        0.0000000
  2152.4600        9.6149600        9.6149600       0.24586389        1.6024698       -1.4970500       -11.510500        1.0000000        0.0000000
  2152.5600        9.4289200        9.4289200       0.24633208        1.6029160       -2.4407000       -8.6605000        1.0000000        0.0000000
  2152.6600        9.1268200        9.1268200       0.24680028        1.6033622       -3.2291500       -6.2432500        1.0000000        0.0000000
  2152.7600        8.7830900        8.7830900       0.24726848        1.6038084       -3.6893500       -4.6802500        1.0000000        0.0000000
  2152.8600        8.3889500        8.3889500       0.24773667        1.6042547       -4.1652000       -3.4932500        1.0000000        0.0000000
  2152.9600        7.9500500        7.9500500       0.24820487        1.6047009       -4.3880000       -1.6107500        1.0000000        0.0000000
  2153.0600        7.5113500        7.5113500       0.24867306        1.6051471       -4.4873500      -0.48825000        1.0000000        0.0000000
  2153.1600        7.0525800        7.0525800       0.24914126        1.6055933       -4.4856500        3.0810000        1.0000000        0.0000000
  2153.2600        6.6142200        6.6142200       0.24960946        1.6060395       -3.8711500        5.5620000        1.0000000        0.0000000
  2153.3600        6.2783500        6.2783500       0.25007765        1.6064858       -3.3732500        2.9807500        1.0000000        0.0000000
  2153.4600        5.9395700        5.9395700       0.25054585        1.6069320       -3.2750000        2.7350000        1.0000000        0.0000000
  2153.5600        5.6233500        5.6233500       0.25101405        1.6073782       -2.8262500        4.8412500        1.0000000        0.0000000
  2153.6600        5.3743200        5.3743200       0.25148224        1.6078244       -2.3067500        3.6872500        1.0000000        0.0000000
  2153.7600        5.1620000        5.1620000       0.25195044        1.6082706       -2.0888000        3.0540000        1.0000000        0.0000000
  2153.8600        4.9565600        4.9565600       0.25241863        1.6087169       -1.6959500        4.4130000        1.0000000        0.0000000
  2153.9600        4.8228100        4.8228100       0.25288683        1.6091631       -1.2062000        3.2365000        1.0000000        0.0000000
  2154.0600        4.7153200        2.3057896       0.25335503        1.6096093       -1.0486500       0.95500000        1.0000000        1.7765893
  2154.1600        4.6130800        2.3204235       0.25382322        1.6100555       -1.0152000        1.3842500        1.0000000        1.6904162
  2154.2600        4.5122800        2.3348270       0.25429142        1.6105017      -0.77180000        2.2565000        1.0000000        1.6054746
  2154.3600        4.4587200        2.3490014       0.25475962        1.6109480      -0.56390000       0.75075000        1.0000000        1.5555328
  2154.4600        4.3995000        2.3629481       0.25522781        1.6113942      -0.62165000       0.41800000        1.0000000        1.5015857
  2154.5600        4.3343900        2.3766683       0.25569601        1.6118404      -0.48030000        1.8127500        1.0000000        1.4434628
  2154.6600        4.3034400        2.3901633       0.25616420        1.6122866      -0.25910000       0.73625000        1.0000000        1.4106927
  2154.7600        4.2825700        2.4034344       0.25663240        1.6127328      -0.33305000       -1.0887500        1.0000000        1.3855199
  2154.8600        4.2368300        2.4164829       0.25710060        1.6131791      -0.47685000       -1.0307500        1.0000000        1.3421741
  2154.9600        4.1872000        2.4293101       0.25756879        1.6136253      -0.53920000      -0.13750000        1.0000000        1.2961233
  2155.0600        4.1289900        2.4419173       0.25803699        1.6140715      -0.50435000       0.66725000        1.0000000        1.2439085
  2155.1600        4.0863300        2.4543057       0.25850519        1.6145177      -0.40575000      -0.11350000        1.0000000        1.2033204
  2155.2600        4.0478400        2.4664767       0.25897338        1.6149640      -0.52705000       -1.2427500        1.0000000        1.1659671
  2155.3600        3.9809200        2.4784315       0.25944158        1.6154102      -0.65430000       -1.1485000        1.0000000        1.1078113
  2155.4600        3.9169800        2.4901715       0.25990977        1.6158564      -0.75675000      -0.50900000        1.0000000        1.0520111
  2155.5600        3.8295700        2.5016980       0.26037797        1.6163026      -0.75610000       0.32025000        1.0000000       0.97906352
  2155.6600        3.7657600        2.5130121       0.26084617        1.6167488      -0.69270000      -0.28675000        1.0000000       0.92367316
  2155.7600        3.6910300        2.5241153       0.26131436        1.6171951      -0.81345000      -0.92450000        1.0000000       0.86038685
  2155.8600        3.6030700        2.5350088       0.26178256        1.6176413      -0.87760000       0.29250000        1.0000000       0.78750043
  2155.9600        3.5155100        2.5456938       0.26225076        1.6180875      -0.75495000       0.94700000        1.0000000       0.71506260
  2156.0600        3.4520800        2.5561718       0.26271895        1.6185337      -0.68820000       0.93500000E-01    1.0000000       0.66056895
  2156.1600        3.3778700        2.5664440       0.26318715        1.6189799      -0.73625000      -0.49675000        1.0000000       0.59827876
  2156.2600        3.3048300        2.5765116       0.26365534        1.6194262      -0.78755000      -0.49400000        1.0000000       0.53700204
  2156.3600        3.2203600        2.5863760       0.26412354        1.6198724      -0.83505000       0.75050000        1.0000000       0.46744763
  2156.4600        3.1378200        2.5960384       0.26459174        1.6203186      -0.63745000        1.1757500        1.0000000       0.39946513
  2156.5600        3.0928700        2.6055002       0.26505993        1.6207648      -0.59990000       0.49275000        1.0000000       0.35934635
  2156.6600        3.0178400        2.6147627       0.26552813        1.6212110      -0.53890000       0.82300000        1.0000000       0.29719604
  2156.7600        2.9850900        2.6238270       0.26599633        1.6216573      -0.43530000       0.31500000E-01    1.0000000       0.26636556
  2156.8600        2.9307800        2.6326946       0.26646452        1.6221035      -0.53260000       0.34125000        1.0000000       0.21978360
  2156.9600        2.8785700        2.6413668       0.26693272        1.6225497      -0.36705000       0.99050000        1.0000000       0.17489414
  2157.0600        2.8573700        2.6498447       0.26740091        1.6229959      -0.33450000       0.51000000        1.0000000       0.15301209
  2157.1600        2.8116700        2.6581297       0.26786911        1.6234421      -0.26505000       0.86650000        1.0000000       0.11320798
  2157.2600        2.8043600        2.6662231       0.26833731        1.6238884      -0.16120000      -0.15225000        1.0000000       0.10185078
  2157.3600        2.7794300        2.6741262       0.26880550        1.6243346      -0.29550000       0.59550000        1.0000000       0.77642362E-01
  2157.4600        2.7452600        2.6818402       0.26927370        1.6247808      -0.42100000E-01    1.1637500        1.0000000       0.46760505E-01
  2157.5600        2.7710100        2.6893666       0.26974190        1.6252270      -0.62750000E-01   -1.5755000        1.0000000       0.60197143E-01
  2157.6600        2.7327100        2.6967065       0.27021009        1.6256732      -0.35720000       -1.2105000        1.0000000       0.26546053E-01
  2157.7600        2.6995700        2.7038612       0.27067829        1.6261195      -0.30485000       0.28025000        1.0000000      -0.31639604E-02
  2157.8600        2.6717400        2.7108320       0.27114648        1.6265657      -0.30115000       0.63000000E-01    1.0000000      -0.28823253E-01
  2157.9600        2.6393400        2.7176203       0.27161468        1.6270119      -0.29225000      -0.20200000        1.0000000      -0.57717475E-01
  2158.0600        2.6132900        2.7242274       0.27208288        1.6274581      -0.34155000      -0.85450000        1.0000000      -0.81796069E-01
  2158.1600        2.5710300        2.7306544       0.27255107        1.6279043      -0.46315000      -0.32575000        1.0000000      -0.11769388
  2158.2600        2.5206600        2.7369027       0.27301927        1.6283506      -0.40670000       0.33375000        1.0000000      -0.15943957
  2158.3600        2.4896900        2.7429736       0.27348747        1.6287968      -0.39640000      -0.38475000        1.0000000      -0.18675050
  2158.4600        2.4413800        2.7488685       0.27395566        1.6292430      -0.48365000      -0.28300000        1.0000000      -0.22671667
  2158.5600        2.3929600        2.7545884       0.27442386        1.6296892      -0.45300000       0.14950000        1.0000000      -0.26663504
  2158.6600        2.3507800        2.7601349       0.27489205        1.6301354      -0.45375000      -0.55000000E-01    1.0000000      -0.30182461
  2158.7600        2.3022100        2.7655091       0.27536025        1.6305817      -0.46400000      -0.11025000        1.0000000      -0.34159864
  2158.8600        2.2579800        2.7707124       0.27582845        1.6310279      -0.47580000       0.95000000E-01    1.0000000      -0.37804667
  2158.9600        2.2070500        2.7757460       0.27629664        1.6314741      -0.44500000       0.49100000        1.0000000      -0.41930963
  2159.0600        2.1689800        2.7806113       0.27676484        1.6319203      -0.37760000       0.64825000        1.0000000      -0.45096656
  2159.1600        2.1315300        2.7853095       0.27723304        1.6323666      -0.31535000       0.44450000        1.0000000      -0.48204316
  2159.2600        2.1059100        2.7898419       0.27770123        1.6328128      -0.28870000      -0.22125000        1.0000000      -0.50427506
  2159.3600        2.0737900        2.7942098       0.27816943        1.6332590      -0.35960000       0.32250000        1.0000000      -0.53117824
  2159.4600        2.0339900        2.7984145       0.27863763        1.6337052      -0.22420000        1.1567500        1.0000000      -0.56362370
  2159.5600        2.0289500        2.8024573       0.27910582        1.6341514      -0.12825000       0.19575000        1.0000000      -0.57032061
  2159.6600        2.0083400        2.8063395       0.27957402        1.6345977      -0.18505000      -0.28200000        1.0000000      -0.58837914
  2159.7600        1.9919400        2.8100624       0.28004221        1.6350439      -0.18465000       0.56625000        1.0000000      -0.60321608
  2159.8600        1.9714100        2.8136272       0.28051041        1.6354901      -0.71800000E-01    1.3477500        1.0000000      -0.62098163
  2159.9600        1.9775800        2.8170353       0.28097861        1.6359363       0.84900000E-01   0.71750000        1.0000000      -0.61894523
  2160.0600        1.9883900        2.8202879       0.28144680        1.6363825       0.71700000E-01  -0.52000000        1.0000000      -0.61337306
  2160.1600        1.9919200        2.8233864       0.28191500        1.6368288      -0.19100000E-01  -0.96750000E-01    1.0000000      -0.61305490
  2160.2600        1.9845700        2.8263321       0.28238320        1.6372750       0.52350000E-01   0.72525000        1.0000000      -0.62064604
  2160.3600        2.0023900        2.8291261       0.28285139        1.6377212       0.12595000       0.41383333        1.0000000      -0.60956714
  2160.4600        2.0097600        2.8317699       0.28331959        1.6381674       0.13511667       0.51366667E-01    1.0000000      -0.60608240
  2160.9600        2.0834600        2.8427796       0.28566057        1.6403985       0.15677000       0.51483333E-01    1.0000000      -0.55985977
  2161.4600        2.1665300        2.8502260       0.28800155        1.6426296       0.18660000       0.31160000E-01    1.0000000      -0.50410113
  2161.9600        2.2700600        2.8542704       0.29034253        1.6448607       0.18793000      -0.28700000E-02    1.0000000      -0.43074866
  2162.4600        2.3544600        2.8550743       0.29268351        1.6470918       0.18373000      -0.38690000E-01    1.0000000      -0.36911179
  2162.9600        2.4537900        2.8527992       0.29502449        1.6493229       0.14924000      -0.70440000E-01    1.0000000      -0.29419651
  2163.4600        2.5037000        2.8476064       0.29736548        1.6515540       0.11329000       0.12380000E-01    1.0000000      -0.25356824
  2163.9600        2.5670800        2.8396573       0.29970646        1.6537851       0.16162000       0.12380000        1.0000000      -0.20097609
  2164.4600        2.6653200        2.8291135       0.30204744        1.6560162       0.23709000       0.95460000E-01    1.0000000      -0.12076788
  2164.9600        2.8041700        2.8161364       0.30438842        1.6582473       0.25708000      -0.48620000E-01    1.0000000      -0.88230356E-02
  2165.4600        2.9224000        2.8008873       0.30672940        1.6604784       0.18847000      -0.14822000        1.0000000       0.89593438E-01
  2165.9600        2.9926400        2.7835278       0.30907038        1.6627095       0.10886000      -0.14267000        1.0000000       0.15418213
  2166.4600        3.0312600        2.7642192       0.31141136        1.6649407       0.45800000E-01  -0.74580000E-01    1.0000000       0.19689391
  2166.9600        3.0384400        2.7431230       0.31375235        1.6671718       0.34280000E-01   0.70800000E-02    1.0000000       0.21774247
  2167.4600        3.0655400        2.7204006       0.31609333        1.6694029       0.52880000E-01  -0.28200000E-01    1.0000000       0.25447740
  2167.9600        3.0913200        2.6962134       0.31843431        1.6716340       0.60800000E-02  -0.74710000E-01    1.0000000       0.29131907
  2168.4600        3.0716200        2.6707229       0.32077529        1.6738651      -0.21830000E-01  -0.43090000E-01    1.0000000       0.29558849
  2168.9600        3.0694900        2.6440906       0.32311627        1.6760962      -0.37010000E-01  -0.53980000E-01    1.0000000       0.31365452
  2169.4600        3.0346100        2.6164778       0.32545725        1.6783273      -0.75810000E-01  -0.57800000E-01    1.0000000       0.30829630
  2169.9600        2.9936800        2.5880459       0.32779823        1.6805584      -0.94810000E-01  -0.14970000E-01    1.0000000       0.29908119
  2170.4600        2.9398000        2.5589565       0.33013921        1.6827895      -0.90780000E-01  -0.54400000E-02    1.0000000       0.28080266
  2170.9600        2.9029000        2.5293709       0.33248020        1.6850206      -0.10025000      -0.34130000E-01    1.0000000       0.27540962
  2171.4600        2.8395500        2.4994506       0.33482118        1.6872517      -0.12491000      -0.36500000E-01    1.0000000       0.25076133
  2171.9600        2.7779900        2.4693569       0.33716216        1.6894828      -0.13675000      -0.11520000E-01    1.0000000       0.22756060
  2172.4600        2.7028000        2.4392515       0.33950314        1.6917139      -0.13643000       0.33000000E-02    1.0000000       0.19431898
  2172.9600        2.6415600        2.4092956       0.34184412        1.6939450      -0.13345000      -0.11840000E-01    1.0000000       0.17125267
  2173.4600        2.5693500        2.3796507       0.34418510        1.6961761      -0.14827000      -0.69000000E-03    1.0000000       0.13986866
  2173.9600        2.4932900        2.3504782       0.34652608        1.6984072      -0.13414000       0.23650000E-01    1.0000000       0.10529765
  2174.4600        2.4352100        2.3219396       0.34886707        1.7006383      -0.12462000      -0.98200000E-02    1.0000000       0.83516266E-01
  2174.9600        2.3686700        2.2941587       0.35120805        1.7028694      -0.14396000      -0.12960000E-01    1.0000000       0.54938470E-01
  2175.4600        2.2912500        2.2671478       0.35354903        1.7051005      -0.13758000       0.10470000E-01    1.0000000       0.17771000E-01
  2175.9600        2.2310900        2.2408981       0.35589001        1.7073316      -0.13349000       0.93700000E-02    1.0000000      -0.72316918E-02
  2176.4600        2.1577600        2.2154012       0.35823099        1.7095627      -0.12821000       0.32470000E-01    1.0000000      -0.42499846E-01
  2176.9600        2.1028800        2.1906483       0.36057197        1.7117938      -0.10102000       0.38190000E-01    1.0000000      -0.64713144E-01
  2177.4600        2.0567400        2.1666310       0.36291295        1.7140249      -0.90020000E-01   0.18120000E-01    1.0000000      -0.81024606E-01
  2177.9600        2.0128600        2.1433407       0.36525393        1.7162560      -0.82900000E-01   0.19670000E-01    1.0000000      -0.96205715E-01
  2178.4600        1.9738400        2.1207687       0.36759492        1.7184871      -0.70350000E-01   0.22750000E-01    1.0000000      -0.10833311
  2178.9600        1.9425100        2.0989064       0.36993590        1.7207182      -0.60150000E-01   0.28800000E-02    1.0000000      -0.11531385
  2179.4600        1.9136900        2.0777453       0.37227688        1.7229493      -0.67470000E-01   0.15950000E-01    1.0000000      -0.12096090
  2179.9600        1.8750400        2.0572768       0.37461786        1.7251804      -0.44200000E-01   0.51130000E-01    1.0000000      -0.13436644
  2180.4600        1.8694900        2.0374923       0.37695884        1.7274115      -0.16340000E-01   0.20860000E-01    1.0000000      -0.12387107
  2180.9600        1.8587000        2.0183832       0.37929982        1.7296426      -0.23340000E-01   0.22000000E-03    1.0000000      -0.11773722
  2181.4600        1.8461500        1.9999408       0.38164080        1.7318737      -0.16120000E-01   0.14350000E-01    1.0000000      -0.11339270
  2181.9600        1.8425800        1.9821567       0.38398179        1.7341048      -0.89900000E-02   0.50500000E-02    1.0000000      -0.10291238
  2182.4600        1.8371600        1.9650222       0.38632277        1.7363359      -0.11070000E-01   0.49400000E-02    1.0000000      -0.94275061E-01
  2182.9600        1.8315100        1.9485287       0.38866375        1.7385670      -0.40500000E-02   0.10420000E-01    1.0000000      -0.86279969E-01
  2183.4600        1.8331100        1.9326677       0.39100473        1.7407981      -0.65000000E-03  -0.27000000E-02    1.0000000      -0.73405629E-01
  2183.9600        1.8308600        1.9174305       0.39334571        1.7430292      -0.67500000E-02  -0.54200000E-02    1.0000000      -0.63829934E-01
  2184.4600        1.8263600        1.9028085       0.39568669        1.7452603      -0.60700000E-02   0.98600000E-02    1.0000000      -0.56366839E-01
  2184.9600        1.8247900        1.8887932       0.39802767        1.7474914       0.31100000E-02   0.16000000E-02    1.0000000      -0.47190705E-01
  2185.4600        1.8294700        1.8753760       0.40036865        1.7497225      -0.44700000E-02  -0.20250000E-01    1.0000000      -0.33847302E-01
  2185.9600        1.8203200        1.8625483       0.40270964        1.7519537      -0.17140000E-01  -0.71800000E-02    1.0000000      -0.31135636E-01
  2186.4600        1.8123300        1.8503014       0.40505062        1.7541848      -0.11650000E-01   0.12220000E-01    1.0000000      -0.27996979E-01
  2186.9600        1.8086700        1.8386268       0.40739160        1.7564159      -0.49200000E-02   0.82000000E-03    1.0000000      -0.22087699E-01
  2187.4600        1.8074100        1.8275160       0.40973258        1.7586470      -0.10830000E-01  -0.20950000E-01    1.0000000      -0.14824486E-01
  2187.9600        1.7978400        1.8169602       0.41207356        1.7608781      -0.25870000E-01  -0.12110000E-01    1.0000000      -0.14097677E-01
  2188.4600        1.7815400        1.8069510       0.41441454        1.7631092      -0.22940000E-01   0.61500000E-02    1.0000000      -0.18735976E-01
  2188.9600        1.7749000        1.7974797       0.41675552        1.7653403      -0.19720000E-01   0.15340000E-01    1.0000000      -0.16648411E-01
  2189.4600        1.7618200        1.7885377       0.41909651        1.7675714      -0.76000000E-02   0.35330000E-01    1.0000000      -0.19699462E-01
  2189.9600        1.7673000        1.7801165       0.42143749        1.7698025       0.15610000E-01  -0.14100000E-02    1.0000000      -0.94498529E-02
  2190.4600        1.7774300        1.7722075       0.42377847        1.7720336      -0.90100000E-02  -0.48120000E-01    1.0000000       0.38506619E-02
  2190.9600        1.7582900        1.7648020       0.42611945        1.7742647      -0.32510000E-01   0.48700000E-02    1.0000000      -0.48013985E-02
  2191.4600        1.7449200        1.7578915       0.42846043        1.7764958      -0.41400000E-02   0.34690000E-01    1.0000000      -0.95640881E-02
  2191.9600        1.7541500        1.7514673       0.43080141        1.7787269       0.21800000E-02   0.21000000E-02    1.0000000       0.19779841E-02
  2192.4600        1.7471000        1.7455210       0.43314239        1.7809580      -0.20400000E-02  -0.18500000E-02    1.0000000       0.11642415E-02
  2192.9600        1.7521100        1.7400438       0.43548337        1.7831891       0.33000000E-03  -0.88800000E-02    1.0000000       0.88966014E-02
  2193.4600        1.7474300        1.7350273       0.43782436        1.7854202      -0.10920000E-01   0.60700000E-02    1.0000000       0.91447392E-02
  2193.9600        1.7411900        1.7304628       0.44016534        1.7876513       0.64000000E-02   0.17610000E-01    1.0000000       0.79093820E-02
  2194.4600        1.7538300        1.7263417       0.44250632        1.7898824       0.66900000E-02  -0.73000000E-02    1.0000000       0.20267638E-01
  2194.9600        1.7478800        1.7226554       0.44484730        1.7921135      -0.90000000E-03  -0.30000000E-02    1.0000000       0.18598547E-01
  2195.4600        1.7529300        1.7193954       0.44718828        1.7943446       0.36900000E-02   0.68200000E-02    1.0000000       0.24725676E-01
  2195.9600        1.7515700        1.7165530       0.44952926        1.7965757       0.59200000E-02  -0.22800000E-02    1.0000000       0.25818657E-01
  2196.4600        1.7588500        1.7141197       0.45187024        1.7988068       0.14100000E-02  -0.11230000E-01    1.0000000       0.32980456E-01
  2196.9600        1.7529800        1.7120868       0.45421123        1.8010379      -0.53100000E-02   0.42000000E-03    1.0000000       0.30151256E-01
  2197.4600        1.7535400        1.7104459       0.45655221        1.8032690       0.18300000E-02  -0.30300000E-02    1.0000000       0.31774071E-01
  2197.9600        1.7548100        1.7091882       0.45889319        1.8055001      -0.83400000E-02  -0.10760000E-01    1.0000000       0.33637779E-01
  2198.4600        1.7452000        1.7083052       0.46123417        1.8077312      -0.89300000E-02  -0.28000000E-03    1.0000000       0.27203202E-01
  2198.9600        1.7458800        1.7077883       0.46357515        1.8099623      -0.86200000E-02   0.55000000E-03    1.0000000       0.28085691E-01
  2199.4600        1.7365800        1.7076289       0.46591613        1.8121934      -0.83800000E-02   0.82200000E-02    1.0000000       0.21346149E-01
  2199.9600        1.7375000        1.7078185       0.46825711        1.8144245      -0.40000000E-03  -0.98000000E-03    1.0000000       0.21884730E-01
  2200.4600        1.7361800        1.7083483       0.47059810        1.8166556      -0.93600000E-02  -0.79633333E-02    1.0000000       0.20520789E-01
  2201.4600        1.7234600        1.7103947       0.47528006        1.8211178      -0.12345000E-01   0.15575000E-02    1.0000000       0.96332936E-02
  2202.4600        1.7114900        1.7136993       0.47996202        1.8255800      -0.62450000E-02   0.36150000E-02    1.0000000      -0.16289191E-02
  2203.4600        1.7109700        1.7181933       0.48464398        1.8300422      -0.51150000E-02   0.45000000E-03    1.0000000      -0.53258733E-02
  2204.4600        1.7012600        1.7238081       0.48932595        1.8345044      -0.53450000E-02   0.78850000E-02    1.0000000      -0.16625129E-01
  2205.4600        1.7002800        1.7304750       0.49400791        1.8389667       0.10655000E-01   0.53450000E-02    1.0000000      -0.22263278E-01
  2206.4600        1.7225700        1.7381251       0.49868987        1.8434289       0.53450000E-02  -0.61550000E-02    1.0000000      -0.11469043E-01
  2207.4600        1.7109700        1.7466898       0.50337183        1.8478911      -0.16550000E-02   0.18325000E-02    1.0000000      -0.26336827E-01
  2208.4600        1.7192600        1.7561003       0.50805380        1.8523533       0.90100000E-02   0.62400000E-02    1.0000000      -0.27163008E-01
  2209.4600        1.7289900        1.7662879       0.51273576        1.8568155       0.10825000E-01   0.94750000E-03    1.0000000      -0.27500422E-01
  2210.4600        1.7409100        1.7771839       0.51741772        1.8612777       0.10905000E-01   0.56625000E-02    1.0000000      -0.26745403E-01
  2211.4600        1.7508000        1.7887196       0.52209968        1.8657399       0.22150000E-01   0.76500000E-02    1.0000000      -0.27958756E-01
  2212.4600        1.7852100        1.8008261       0.52678165        1.8702021       0.26205000E-01  -0.32725000E-02    1.0000000      -0.11514019E-01
  2213.4600        1.8032100        1.8134348       0.53146361        1.8746643       0.15605000E-01  -0.31300000E-02    1.0000000      -0.75389287E-02
  2214.4600        1.8164200        1.8264770       0.53614557        1.8791265       0.19945000E-01   0.55900000E-02    1.0000000      -0.74151771E-02
  2215.4600        1.8431000        1.8398838       0.54082754        1.8835887       0.26785000E-01   0.14925000E-02    1.0000000       0.23713331E-02
  2216.4600        1.8699900        1.8535867       0.54550950        1.8880509       0.22930000E-01  -0.20725000E-02    1.0000000       0.12094446E-01
  2217.4600        1.8889600        1.8675168       0.55019146        1.8925131       0.22640000E-01  -0.17650000E-02    1.0000000       0.15810446E-01
  2218.4600        1.9152700        1.8816054       0.55487342        1.8969753       0.19400000E-01  -0.91000000E-03    1.0000000       0.24821476E-01
  2219.4600        1.9277600        1.8957839       0.55955539        1.9014375       0.20820000E-01   0.11125000E-02    1.0000000       0.23576572E-01
  2220.4600        1.9569100        1.9099833       0.56423735        1.9058997       0.21625000E-01  -0.48475000E-02    1.0000000       0.34599853E-01
  2221.4600        1.9710100        1.9241352       0.56891931        1.9103619       0.11125000E-01  -0.69550000E-02    1.0000000       0.34561651E-01
  2222.4600        1.9791600        1.9381706       0.57360127        1.9148241       0.77150000E-02  -0.13800000E-02    1.0000000       0.30222234E-01
  2223.4600        1.9864400        1.9520208       0.57828324        1.9192863       0.83650000E-02   0.78250000E-03    1.0000000       0.25377853E-01
  2224.4600        1.9958900        1.9656173       0.58296520        1.9237486       0.92800000E-02   0.67500000E-04    1.0000000       0.22320629E-01
  2225.4600        2.0050000        1.9788911       0.58764716        1.9282108       0.85000000E-02  -0.14550000E-02    1.0000000       0.19250573E-01
  2226.4600        2.0128900        1.9917736       0.59232912        1.9326730       0.63700000E-02  -0.37100000E-02    1.0000000       0.15569520E-01
  2227.4600        2.0177400        2.0041960       0.59701109        1.9371352       0.10800000E-02  -0.23450000E-02    1.0000000       0.99862288E-02
  2228.4600        2.0150500        2.0160897       0.60169305        1.9415974       0.16800000E-02   0.18300000E-02    1.0000000      -0.76655280E-03
  2229.4600        2.0211000        2.0273858       0.60637501        1.9460596       0.47400000E-02   0.36675000E-02    1.0000000      -0.46346170E-02
  2230.4600        2.0245300        2.0380157       0.61105698        1.9505218       0.90150000E-02   0.36250000E-02    1.0000000      -0.99432160E-02
  2231.4600        2.0391300        2.0479106       0.61573894        1.9549840       0.11990000E-01  -0.77000000E-03    1.0000000      -0.64740625E-02
  2232.4600        2.0485100        2.0570017       0.62042090        1.9594462       0.74750000E-02  -0.21975000E-02    1.0000000      -0.62611168E-02
  2233.4600        2.0540800        2.0652205       0.62510286        1.9639084       0.75950000E-02  -0.10475000E-02    1.0000000      -0.82140843E-02
  2234.4600        2.0637000        2.0724981       0.62978483        1.9683706       0.53800000E-02  -0.31100000E-02    1.0000000      -0.64869717E-02
  2235.4600        2.0648400        2.0787657       0.63446679        1.9728328       0.13750000E-02  -0.86000000E-03    1.0000000      -0.10267693E-01
  2236.4600        2.0664500        2.0839548       0.63914875        1.9772950       0.36600000E-02   0.20550000E-02    1.0000000      -0.12906578E-01
  2237.4600        2.0721600        2.0879964       0.64383071        1.9817572       0.54850000E-02   0.80000000E-03    1.0000000      -0.11676487E-01
  2238.4600        2.0774200        2.0908220       0.64851268        1.9862194       0.52600000E-02  -0.22500000E-03    1.0000000      -0.98815400E-02
