# XDI/1.0 Athena/0.9.26
# Element.edge:                  K
# Element.symbol:                P
# Column.1:                      energy eV
# Column.2:                      xmu
# Column.3:                      bkg
# Column.4:                      pre_edge
# Column.5:                      post_edge
# Column.6:                      der
# Column.7:                      sec
# Column.8:                      i0
# Column.9:                      chi(e)
# Athena.e0:                     2154
# Athena.eshift:                 0.49
# Athena.rbkg:                   1.0
# Athena.importance:             1
# Athena.standard:               None
# Athena.bkg_kweight:            2
# Athena.edge_step:              0.6464310
# Athena.fixed_step:             no
# Athena.pre_edge_range:         -25 -10
# Athena.pre_edge_line:          -0.125802 + 9.58033e-005 * E
# Athena.normalization_range:    33.5 51
# Athena.post_edge_polynomial:   0.705568 + 9.94486e-006 * E + 0 * E^2 + 0 * E^3
# Athena.spline_range_energy:    0.000 85.601
# Athena.clamps:                 0 24
# Athena.spline_range_k:         0.000 4.740
# Athena.kweight:                2
# Athena.window:                 hanning
# Athena.phase_correction:       no
# Athena.k_range:                2.740 3.000
# Athena.dk:                     1
# Athena.r_range:                1 3
# Athena.dr:                     0.0
# Athena.window:                 hanning
# Athena.plot_multiplier:        1
# Athena.y_offset:               0
# ///
#------------------------
#   e         xmu        bkg        pre_edge        post_edge        der        sec        i0        chie
  2125.4900       0.86276900E-01   0.86276900E-01   0.77826779E-01   0.72670561      -0.11165500E-02   0.99400000E-04    1.0000000        0.0000000
  2127.4900       0.84043800E-01   0.84043800E-01   0.78018385E-01   0.72672550      -0.91775000E-03   0.40206250E-04    1.0000000        0.0000000
  2129.4900       0.82605900E-01   0.82605900E-01   0.78209992E-01   0.72674539      -0.95572500E-03   0.20525000E-04    1.0000000        0.0000000
  2131.4900       0.80220900E-01   0.80220900E-01   0.78401599E-01   0.72676528      -0.83565000E-03   0.66868750E-04    1.0000000        0.0000000
  2133.4900       0.79263300E-01   0.79263300E-01   0.78593205E-01   0.72678517      -0.68825000E-03   0.39343750E-04    1.0000000        0.0000000
  2135.4900       0.77467900E-01   0.77467900E-01   0.78784812E-01   0.72680506      -0.67827500E-03   0.82243750E-04    1.0000000        0.0000000
  2137.4900       0.76550200E-01   0.76550200E-01   0.78976419E-01   0.72682495      -0.35927500E-03   0.22178542E-03    1.0000000        0.0000000
  2139.4900       0.76030800E-01   0.76030800E-01   0.79168025E-01   0.72684484       0.20886667E-03   0.68387955E-03    1.0000000        0.0000000
  2140.4900       0.77176800E-01   0.77176800E-01   0.79263829E-01   0.72685478       0.16923636E-02   0.13351212E-02    1.0000000        0.0000000
  2140.5900       0.77892400E-01   0.77892400E-01   0.79273409E-01   0.72685578       0.16775000E-02  -0.69143182E-02    1.0000000        0.0000000
  2140.6900       0.77512300E-01   0.77512300E-01   0.79282989E-01   0.72685677       0.30950000E-03  -0.73475000E-02    1.0000000        0.0000000
  2140.7900       0.77954300E-01   0.77954300E-01   0.79292570E-01   0.72685777       0.20800000E-03  -0.11840000E-01    1.0000000        0.0000000
  2140.8900       0.77553900E-01   0.77553900E-01   0.79302150E-01   0.72685876      -0.20585000E-02   0.19580000E-01    1.0000000        0.0000000
  2140.9900       0.77542600E-01   0.77542600E-01   0.79311730E-01   0.72685975       0.41240000E-02   0.81350000E-02    1.0000000        0.0000000
  2141.0900       0.78378700E-01   0.78378700E-01   0.79321311E-01   0.72686075      -0.43150000E-03  -0.23340000E-01    1.0000000        0.0000000
  2141.1900       0.77456300E-01   0.77456300E-01   0.79330891E-01   0.72686174      -0.54400000E-03   0.15357500E-01    1.0000000        0.0000000
  2141.2900       0.78269900E-01   0.78269900E-01   0.79340471E-01   0.72686274       0.26400000E-02   0.97500000E-04    1.0000000        0.0000000
  2141.3900       0.77984300E-01   0.77984300E-01   0.79350052E-01   0.72686373      -0.52450000E-03   0.99200000E-02    1.0000000        0.0000000
  2141.4900       0.78165000E-01   0.78165000E-01   0.79359632E-01   0.72686473       0.46240000E-02   0.15442500E-01    1.0000000        0.0000000
  2141.5900       0.78909100E-01   0.78909100E-01   0.79369212E-01   0.72686572       0.25640000E-02  -0.30677500E-01    1.0000000        0.0000000
  2141.6900       0.78677800E-01   0.78677800E-01   0.79378793E-01   0.72686672      -0.15115000E-02  -0.84700000E-02    1.0000000        0.0000000
  2141.7900       0.78606800E-01   0.78606800E-01   0.79388373E-01   0.72686771       0.87000000E-03  -0.19150000E-02    1.0000000        0.0000000
  2141.8900       0.78851800E-01   0.78851800E-01   0.79397953E-01   0.72686870      -0.18945000E-02  -0.51925000E-02    1.0000000        0.0000000
  2141.9900       0.78227900E-01   0.78227900E-01   0.79407534E-01   0.72686970      -0.16850000E-03   0.17442500E-01    1.0000000        0.0000000
  2142.0900       0.78818100E-01   0.78818100E-01   0.79417114E-01   0.72687069       0.15940000E-02   0.78350000E-02    1.0000000        0.0000000
  2142.1900       0.78546700E-01   0.78546700E-01   0.79426694E-01   0.72687169       0.13985000E-02   0.17917500E-01    1.0000000        0.0000000
  2142.2900       0.79097800E-01   0.79097800E-01   0.79436275E-01   0.72687268       0.51775000E-02  -0.37725000E-02    1.0000000        0.0000000
  2142.3900       0.79582200E-01   0.79582200E-01   0.79445855E-01   0.72687368       0.64400000E-03  -0.17272500E-01    1.0000000        0.0000000
  2142.4900       0.79226600E-01   0.79226600E-01   0.79455435E-01   0.72687467       0.17230000E-02   0.12065000E-01    1.0000000        0.0000000
  2142.5900       0.79926800E-01   0.79926800E-01   0.79465016E-01   0.72687567       0.30570000E-02  -0.10945000E-01    1.0000000        0.0000000
  2142.6900       0.79838000E-01   0.79838000E-01   0.79474596E-01   0.72687666      -0.46600000E-03  -0.38900000E-02    1.0000000        0.0000000
  2142.7900       0.79833600E-01   0.79833600E-01   0.79484176E-01   0.72687765       0.22790000E-02   0.10947500E-01    1.0000000        0.0000000
  2142.8900       0.80293800E-01   0.80293800E-01   0.79493757E-01   0.72687865       0.17235000E-02  -0.16460000E-01    1.0000000        0.0000000
  2142.9900       0.80178300E-01   0.80178300E-01   0.79503337E-01   0.72687964      -0.10130000E-02  -0.71325000E-02    1.0000000        0.0000000
  2143.0900       0.80091200E-01   0.80091200E-01   0.79512917E-01   0.72688064       0.29700000E-03   0.23955000E-01    1.0000000        0.0000000
  2143.1900       0.80237700E-01   0.80237700E-01   0.79522498E-01   0.72688163       0.37780000E-02   0.11537500E-01    1.0000000        0.0000000
  2143.2900       0.80846800E-01   0.80846800E-01   0.79532078E-01   0.72688263       0.26045000E-02  -0.11935000E-01    1.0000000        0.0000000
  2143.3900       0.80758600E-01   0.80758600E-01   0.79541658E-01   0.72688362       0.13910000E-02   0.13540000E-01    1.0000000        0.0000000
  2143.4900       0.81125000E-01   0.81125000E-01   0.79551239E-01   0.72688462       0.53125000E-02   0.19895000E-01    1.0000000        0.0000000
  2143.5900       0.81821100E-01   0.81821100E-01   0.79560819E-01   0.72688561       0.53700000E-02  -0.90900000E-02    1.0000000        0.0000000
  2143.6900       0.82199000E-01   0.82199000E-01   0.79570399E-01   0.72688661       0.34945000E-02  -0.20102500E-01    1.0000000        0.0000000
  2143.7900       0.82520000E-01   0.82520000E-01   0.79579980E-01   0.72688760       0.13495000E-02  -0.65125000E-02    1.0000000        0.0000000
  2143.8900       0.82468900E-01   0.82468900E-01   0.79589560E-01   0.72688859       0.21920000E-02  -0.86250000E-03    1.0000000        0.0000000
  2143.9900       0.82958400E-01   0.82958400E-01   0.79599140E-01   0.72688959       0.11770000E-02  -0.15195000E-01    1.0000000        0.0000000
  2144.0900       0.82704300E-01   0.82704300E-01   0.79608721E-01   0.72689058      -0.84700000E-03   0.16275000E-01    1.0000000        0.0000000
  2144.1900       0.82789000E-01   0.82789000E-01   0.79618301E-01   0.72689158       0.44320000E-02   0.17780000E-01    1.0000000        0.0000000
  2144.2900       0.83590700E-01   0.83590700E-01   0.79627881E-01   0.72689257       0.27090000E-02   0.57925000E-02    1.0000000        0.0000000
  2144.3900       0.83330800E-01   0.83330800E-01   0.79637462E-01   0.72689357       0.55905000E-02   0.24640000E-01    1.0000000        0.0000000
  2144.4900       0.84708800E-01   0.84708800E-01   0.79647042E-01   0.72689456       0.76370000E-02  -0.26622500E-01    1.0000000        0.0000000
  2144.5900       0.84858200E-01   0.84858200E-01   0.79656622E-01   0.72689556       0.26600000E-03  -0.24352500E-01    1.0000000        0.0000000
  2144.6900       0.84762000E-01   0.84762000E-01   0.79666203E-01   0.72689655       0.27665000E-02   0.33800000E-02    1.0000000        0.0000000
  2144.7900       0.85411500E-01   0.85411500E-01   0.79675783E-01   0.72689754       0.94200000E-03  -0.14280000E-01    1.0000000        0.0000000
  2144.8900       0.84950400E-01   0.84950400E-01   0.79685363E-01   0.72689854      -0.89500000E-04   0.49252500E-01    1.0000000        0.0000000
  2144.9900       0.85393600E-01   0.85393600E-01   0.79694944E-01   0.72689953       0.10792500E-01   0.50892500E-01    1.0000000        0.0000000
  2145.0900       0.87108900E-01   0.87108900E-01   0.79704524E-01   0.72690053       0.10089000E-01  -0.44400000E-01    1.0000000        0.0000000
  2145.1900       0.87411400E-01   0.87411400E-01   0.79714104E-01   0.72690152       0.19125000E-02  -0.41527500E-01    1.0000000        0.0000000
  2145.2900       0.87491400E-01   0.87491400E-01   0.79723685E-01   0.72690252       0.17835000E-02   0.23250000E-01    1.0000000        0.0000000
  2145.3900       0.87768100E-01   0.87768100E-01   0.79733265E-01   0.72690351       0.65625000E-02   0.26812500E-01    1.0000000        0.0000000
  2145.4900       0.88803900E-01   0.88803900E-01   0.79742846E-01   0.72690451       0.71460000E-02   0.17735000E-01    1.0000000        0.0000000
  2145.5900       0.89197300E-01   0.89197300E-01   0.79752426E-01   0.72690550       0.10109500E-01   0.14897500E-01    1.0000000        0.0000000
  2145.6900       0.90825800E-01   0.90825800E-01   0.79762006E-01   0.72690650       0.10125500E-01  -0.58030000E-01    1.0000000        0.0000000
  2145.7900       0.91222400E-01   0.91222400E-01   0.79771587E-01   0.72690749      -0.14965000E-02  -0.47232500E-01    1.0000000        0.0000000
  2145.8900       0.90526500E-01   0.90526500E-01   0.79781167E-01   0.72690848       0.67900000E-03   0.59387500E-01    1.0000000        0.0000000
  2145.9900       0.91358200E-01   0.91358200E-01   0.79790747E-01   0.72690948       0.10381000E-01   0.50457500E-01    1.0000000        0.0000000
  2146.0900       0.92602700E-01   0.92602700E-01   0.79800328E-01   0.72691047       0.10770500E-01  -0.10445000E-01    1.0000000        0.0000000
  2146.1900       0.93512300E-01   0.93512300E-01   0.79809908E-01   0.72691147       0.82920000E-02  -0.26782500E-01    1.0000000        0.0000000
  2146.2900       0.94261100E-01   0.94261100E-01   0.79819488E-01   0.72691246       0.54140000E-02  -0.22637500E-01    1.0000000        0.0000000
  2146.3900       0.94595100E-01   0.94595100E-01   0.79829069E-01   0.72691346       0.37645000E-02   0.34292500E-01    1.0000000        0.0000000
  2146.4900       0.95014000E-01   0.95014000E-01   0.79838649E-01   0.72691445       0.12272500E-01   0.67880000E-01    1.0000000        0.0000000
  2146.5900       0.97049600E-01   0.97049600E-01   0.79848229E-01   0.72691545       0.17340500E-01  -0.59675000E-02    1.0000000        0.0000000
  2146.6900       0.98482100E-01   0.98482100E-01   0.79857810E-01   0.72691644       0.11079000E-01  -0.49242500E-01    1.0000000        0.0000000
  2146.7900       0.99265400E-01   0.99265400E-01   0.79867390E-01   0.72691743       0.74920000E-02  -0.13955000E-01    1.0000000        0.0000000
  2146.8900       0.99980500E-01   0.99980500E-01   0.79876970E-01   0.72691843       0.82880000E-02  -0.15725000E-02    1.0000000        0.0000000
  2146.9900       0.10092300       0.10092300       0.79886551E-01   0.72691942       0.71775000E-02   0.17710000E-01    1.0000000        0.0000000
  2147.0900       0.10141600       0.10141600       0.79896131E-01   0.72692042       0.11830000E-01   0.64437500E-01    1.0000000        0.0000000
  2147.1900       0.10328900       0.10328900       0.79905711E-01   0.72692141       0.20065000E-01   0.10075000E-01    1.0000000        0.0000000
  2147.2900       0.10542900       0.10542900       0.79915292E-01   0.72692241       0.13845000E-01  -0.38675000E-01    1.0000000        0.0000000
  2147.3900       0.10605800       0.10605800       0.79924872E-01   0.72692340       0.12330000E-01   0.48050000E-01    1.0000000        0.0000000
  2147.4900       0.10789500       0.10789500       0.79934452E-01   0.72692440       0.23455000E-01   0.31025000E-01    1.0000000        0.0000000
  2147.5900       0.11074900       0.11074900       0.79944033E-01   0.72692539       0.18535000E-01  -0.37625000E-01    1.0000000        0.0000000
  2147.6900       0.11160200       0.11160200       0.79953613E-01   0.72692638       0.15930000E-01   0.19250000E-02    1.0000000        0.0000000
  2147.7900       0.11393500       0.11393500       0.79963193E-01   0.72692738       0.18920000E-01   0.15475000E-01    1.0000000        0.0000000
  2147.8900       0.11538600       0.11538600       0.79972774E-01   0.72692837       0.19025000E-01   0.49475000E-01    1.0000000        0.0000000
  2147.9900       0.11774000       0.11774000       0.79982354E-01   0.72692937       0.28815000E-01   0.28925000E-01    1.0000000        0.0000000
  2148.0900       0.12114900       0.12114900       0.79991934E-01   0.72693036       0.24810000E-01  -0.62550000E-01    1.0000000        0.0000000
  2148.1900       0.12270200       0.12270200       0.80001515E-01   0.72693136       0.16305000E-01   0.34750000E-01    1.0000000        0.0000000
  2148.2900       0.12441000       0.12441000       0.80011095E-01   0.72693235       0.31760000E-01   0.92750000E-01    1.0000000        0.0000000
  2148.3900       0.12905400       0.12905400       0.80020675E-01   0.72693335       0.34855000E-01  -0.11800000E-01    1.0000000        0.0000000
  2148.4900       0.13138100       0.13138100       0.80030256E-01   0.72693434       0.29400000E-01   0.16775000E-01    1.0000000        0.0000000
  2148.5900       0.13493400       0.13493400       0.80039836E-01   0.72693534       0.38210000E-01   0.72825000E-01    1.0000000        0.0000000
  2148.6900       0.13902300       0.13902300       0.80049416E-01   0.72693633       0.43965000E-01   0.34275000E-01    1.0000000        0.0000000
  2148.7900       0.14372700       0.14372700       0.80058997E-01   0.72693732       0.45065000E-01   0.19750000E-01    1.0000000        0.0000000
  2148.8900       0.14803600       0.14803600       0.80068577E-01   0.72693832       0.47915000E-01   0.65000000E-02    1.0000000        0.0000000
  2148.9900       0.15331000       0.15331000       0.80078157E-01   0.72693931       0.46365000E-01   0.18600000E-01    1.0000000        0.0000000
  2149.0900       0.15730900       0.15730900       0.80087738E-01   0.72694031       0.51635000E-01   0.13210000        1.0000000        0.0000000
  2149.1900       0.16363700       0.16363700       0.80097318E-01   0.72694130       0.72785000E-01   0.18157500        1.0000000        0.0000000
  2149.2900       0.17186600       0.17186600       0.80106898E-01   0.72694230       0.87950000E-01   0.11702500        1.0000000        0.0000000
  2149.3900       0.18122700       0.18122700       0.80116479E-01   0.72694329       0.96190000E-01   0.75000000E-01    1.0000000        0.0000000
  2149.4900       0.19110400       0.19110400       0.80126059E-01   0.72694429       0.10295000       0.13890000        1.0000000        0.0000000
  2149.5900       0.20181700       0.20181700       0.80135639E-01   0.72694528       0.12397000       0.19882500        1.0000000        0.0000000
  2149.6900       0.21589800       0.21589800       0.80145220E-01   0.72694627       0.14271500       0.18110000        1.0000000        0.0000000
  2149.7900       0.23036000       0.23036000       0.80154800E-01   0.72694727       0.16019000       0.32812500        1.0000000        0.0000000
  2149.8900       0.24793600       0.24793600       0.80164380E-01   0.72694826       0.20834000       0.50657500        1.0000000        0.0000000
  2149.9900       0.27202800       0.27202800       0.80173961E-01   0.72694926       0.26150500       0.52102500        1.0000000        0.0000000
  2150.0900       0.30023700       0.30023700       0.80183541E-01   0.72695025       0.31254500       0.65630000        1.0000000        0.0000000
  2150.1900       0.33453700       0.33453700       0.80193121E-01   0.72695125       0.39276500       0.85920000        1.0000000        0.0000000
  2150.2900       0.37879000       0.37879000       0.80202702E-01   0.72695224       0.48438500       0.80197500        1.0000000        0.0000000
  2150.3900       0.43141400       0.43141400       0.80212282E-01   0.72695324       0.55316000       0.79212500        1.0000000        0.0000000
  2150.4900       0.48942200       0.48942200       0.80221862E-01   0.72695423       0.64281000        1.0772500        1.0000000        0.0000000
  2150.5900       0.55997600       0.55997600       0.80231443E-01   0.72695522       0.76861000        1.1194000        1.0000000        0.0000000
  2150.6900       0.64314400       0.64314400       0.80241023E-01   0.72695622       0.86669000       0.96795000        1.0000000        0.0000000
  2150.7900       0.73331400       0.73331400       0.80250603E-01   0.72695721       0.96220000        1.1997500        1.0000000        0.0000000
  2150.8900       0.83558400       0.83558400       0.80260184E-01   0.72695821        1.1066400        1.4436500        1.0000000        0.0000000
  2150.9900       0.95464200       0.95464200       0.80269764E-01   0.72695920        1.2509300        1.6657500        1.0000000        0.0000000
  2151.0900        1.0857700        1.0857700       0.80279344E-01   0.72696020        1.4397900        2.2441000        1.0000000        0.0000000
  2151.1900        1.2426000        1.2426000       0.80288925E-01   0.72696119        1.6997500        2.8010500        1.0000000        0.0000000
  2151.2900        1.4257200        1.4257200       0.80298505E-01   0.72696219        2.0000000        3.8327500        1.0000000        0.0000000
  2151.3900        1.6426000        1.6426000       0.80308085E-01   0.72696318        2.4663000        4.5757500        1.0000000        0.0000000
  2151.4900        1.9189800        1.9189800       0.80317666E-01   0.72696418        2.9151500        4.1900000        1.0000000        0.0000000
  2151.5900        2.2256300        2.2256300       0.80327246E-01   0.72696517        3.3043000        3.0350000        1.0000000        0.0000000
  2151.6900        2.5798400        2.5798400       0.80336826E-01   0.72696616        3.5221500       0.47425000        1.0000000        0.0000000
  2151.7900        2.9300600        2.9300600       0.80346407E-01   0.72696716        3.3991500       -2.0840000        1.0000000        0.0000000
  2151.8900        3.2596700        3.2596700       0.80355987E-01   0.72696815        3.1053500       -3.3207500        1.0000000        0.0000000
  2151.9900        3.5511300        3.5511300       0.80365567E-01   0.72696915        2.7350000       -4.4892500        1.0000000        0.0000000
  2152.0900        3.8066700        3.8066700       0.80375148E-01   0.72697014        2.2075000       -5.1340000        1.0000000        0.0000000
  2152.1900        3.9926300        3.9926300       0.80384728E-01   0.72697114        1.7082000       -4.5632500        1.0000000        0.0000000
  2152.2900        4.1483100        4.1483100       0.80394308E-01   0.72697213        1.2948500       -4.1410000        1.0000000        0.0000000
  2152.3900        4.2516000        4.2516000       0.80403889E-01   0.72697313       0.88000000       -4.1995000        1.0000000        0.0000000
  2152.4900        4.3243100        4.3243100       0.80413469E-01   0.72697412       0.45495000       -4.2105000        1.0000000        0.0000000
  2152.5900        4.3425900        4.3425900       0.80423049E-01   0.72697511       0.37900000E-01   -3.5452500        1.0000000        0.0000000
  2152.6900        4.3318900        4.3318900       0.80432630E-01   0.72697611      -0.25410000       -3.2975000        1.0000000        0.0000000
  2152.7900        4.2917700        4.2917700       0.80442210E-01   0.72697710      -0.62160000       -3.5485000        1.0000000        0.0000000
  2152.8900        4.2075700        4.2075700       0.80451790E-01   0.72697810      -0.96380000       -3.3675000        1.0000000        0.0000000
  2152.9900        4.0990100        4.0990100       0.80461371E-01   0.72697909       -1.2951000       -4.1450000        1.0000000        0.0000000
  2153.0900        3.9485500        3.9485500       0.80470951E-01   0.72698009       -1.7928000       -3.8057500        1.0000000        0.0000000
  2153.1900        3.7404500        3.7404500       0.80480531E-01   0.72698108       -2.0562500       -1.4347500        1.0000000        0.0000000
  2153.2900        3.5373000        3.5373000       0.80490112E-01   0.72698208       -2.0797500      -0.41450000        1.0000000        0.0000000
  2153.3900        3.3245000        3.3245000       0.80499692E-01   0.72698307       -2.1391500      -0.67000000        1.0000000        0.0000000
  2153.4900        3.1094700        3.1094700       0.80509272E-01   0.72698406       -2.2137500       0.26500000        1.0000000        0.0000000
  2153.5900        2.8817500        2.8817500       0.80518853E-01   0.72698506       -2.0861500        1.5537500        1.0000000        0.0000000
  2153.6900        2.6922400        2.6922400       0.80528433E-01   0.72698605       -1.9030000        1.3630000        1.0000000        0.0000000
  2153.7900        2.5011500        2.5011500       0.80538013E-01   0.72698705       -1.8135500        1.3027500        1.0000000        0.0000000
  2153.8900        2.3295300        2.3295300       0.80547594E-01   0.72698804       -1.6424500        1.7952500        1.0000000        0.0000000
  2153.9900        2.1726600        2.1726600       0.80557174E-01   0.72698904       -1.4545000        1.9570000        1.0000000        0.0000000
  2154.0900        2.0386300       0.86121163       0.80566754E-01   0.72699003       -1.2510500        1.8297500        1.0000000        1.8214138
  2154.1900        1.9224500       0.86862656       0.80576335E-01   0.72699103       -1.0885500        1.7175000        1.0000000        1.6302180
  2154.2900        1.8209200       0.87593397       0.80585915E-01   0.72699202      -0.90755000        1.4830000        1.0000000        1.4618513
  2154.3900        1.7409400       0.88313447       0.80595495E-01   0.72699302      -0.79195000        1.1347500        1.0000000        1.3269870
  2154.4900        1.6625300       0.89022863       0.80605076E-01   0.72699401      -0.68060000        1.2985000        1.0000000        1.1947159
  2154.5900        1.6048200       0.89721704       0.80614656E-01   0.72699500      -0.53225000       0.88750000        1.0000000        1.0946303
  2154.6900        1.5560800       0.90410029       0.80624236E-01   0.72699600      -0.50310000       0.45350000        1.0000000        1.0085836
  2154.7900        1.5042000       0.91087896       0.80633817E-01   0.72699699      -0.44155000       0.77250000        1.0000000       0.91784126
  2154.8900        1.4677700       0.91755363       0.80643397E-01   0.72699799      -0.34860000       0.49300000        1.0000000       0.85116024
  2154.9900        1.4344800       0.92412490       0.80652977E-01   0.72699898      -0.34295000       0.37850000        1.0000000       0.78949664
  2155.0900        1.3991800       0.93059335       0.80662558E-01   0.72699998      -0.27290000       0.57900000        1.0000000       0.72488271
  2155.1900        1.3799000       0.93695956       0.80672138E-01   0.72700097      -0.22715000       0.23500000        1.0000000       0.68520916
  2155.2900        1.3537500       0.94322412       0.80681718E-01   0.72700197      -0.22590000       0.26625000        1.0000000       0.63506527
  2155.3900        1.3347200       0.94938762       0.80691299E-01   0.72700296      -0.17390000       0.17400000        1.0000000       0.59609205
  2155.4900        1.3189700       0.95545064       0.80700879E-01   0.72700395      -0.19110000      -0.55750000E-01    1.0000000       0.56234827
  2155.5900        1.2965000       0.96141377       0.80710459E-01   0.72700495      -0.18505000       0.16300000        1.0000000       0.51836349
  2155.6900        1.2819600       0.96727760       0.80720040E-01   0.72700594      -0.15850000       0.95000000E-02    1.0000000       0.48679968
  2155.7900        1.2648000       0.97304270       0.80729620E-01   0.72700694      -0.18315000       0.26475000        1.0000000       0.45133556
  2155.8900        1.2453300       0.97870967       0.80739200E-01   0.72700793      -0.10555000       0.40950000        1.0000000       0.41244979
  2155.9900        1.2436900       0.98427909       0.80748781E-01   0.72700893      -0.10125000      -0.22000000        1.0000000       0.40129714
  2156.0900        1.2250800       0.98975155       0.80758361E-01   0.72700992      -0.14955000      -0.11875000        1.0000000       0.36404264
  2156.1900        1.2137800       0.99512763       0.80767941E-01   0.72701092      -0.12500000       0.93750000E-01    1.0000000       0.33824549
  2156.2900        1.2000800        1.0004079       0.80777522E-01   0.72701191      -0.13080000      -0.10075000        1.0000000       0.30888382
  2156.3900        1.1876200        1.0055930       0.80787102E-01   0.72701291      -0.14515000       0.81250000E-01    1.0000000       0.28158766
  2156.4900        1.1710500        1.0106835       0.80796682E-01   0.72701390      -0.11455000       0.32000000        1.0000000       0.24807988
  2156.5900        1.1647100        1.0156799       0.80806263E-01   0.72701489      -0.81150000E-01  -0.18225000        1.0000000       0.23054292
  2156.6900        1.1548200        1.0205829       0.80815843E-01   0.72701589      -0.15100000      -0.22125000        1.0000000       0.20765883
  2156.7900        1.1345100        1.0253930       0.80825423E-01   0.72701688      -0.12540000       0.65550000        1.0000000       0.16879911
  2156.8900        1.1297400        1.0301109       0.80835004E-01   0.72701788      -0.19900000E-01   0.44900000        1.0000000       0.15412183
  2156.9900        1.1305300        1.0347370       0.80844584E-01   0.72701887      -0.35600000E-01  -0.34825000        1.0000000       0.14818747
  2157.0900        1.1226200        1.0392721       0.80854164E-01   0.72701987      -0.89550000E-01  -0.24925000        1.0000000       0.12893552
  2157.1900        1.1126200        1.0437166       0.80863745E-01   0.72702086      -0.85450000E-01  -0.73000000E-01    1.0000000       0.10659046
  2157.2900        1.1055300        1.0480712       0.80873325E-01   0.72702186      -0.10415000      -0.45500000E-01    1.0000000       0.88886171E-01
  2157.3900        1.0917900        1.0523365       0.80882905E-01   0.72702285      -0.94550000E-01   0.13825000        1.0000000       0.61032838E-01
  2157.4900        1.0866200        1.0565130       0.80892486E-01   0.72702384      -0.76500000E-01  -0.22500000E-01    1.0000000       0.46574223E-01
  2157.5900        1.0764900        1.0606013       0.80902066E-01   0.72702484      -0.99050000E-01   0.10000000E-02    1.0000000       0.24579111E-01
  2157.6900        1.0668100        1.0646020       0.80911646E-01   0.72702583      -0.76300000E-01   0.92000000E-01    1.0000000       0.34156251E-02
  2157.7900        1.0612300        1.0685158       0.80921227E-01   0.72702683      -0.80650000E-01  -0.13200000        1.0000000      -0.11270753E-01
  2157.8900        1.0506800        1.0723431       0.80930807E-01   0.72702782      -0.10270000      -0.27425000        1.0000000      -0.33511817E-01
  2157.9900        1.0406900        1.0760846       0.80940387E-01   0.72702882      -0.13550000      -0.18575000        1.0000000      -0.54753807E-01
  2158.0900        1.0235800        1.0797408       0.80949968E-01   0.72702981      -0.13985000       0.33225000E-01    1.0000000      -0.86878251E-01
  2158.1900        1.0127200        1.0833124       0.80959548E-01   0.72703081      -0.12885500       0.82925000E-01    1.0000000      -0.10920326
  2158.2900       0.99780900        1.0867999       0.80969128E-01   0.72703180      -0.12326500       0.34800000E-01    1.0000000      -0.13766492
  2158.3900       0.98806700        1.0902039       0.80978709E-01   0.72703279      -0.12189500      -0.11342500        1.0000000      -0.15800122
  2158.4900       0.97343000        1.0935250       0.80988289E-01   0.72703379      -0.14595000       0.18080000        1.0000000      -0.18578162
  2158.5900       0.95887700        1.0967638       0.80997869E-01   0.72703478      -0.85735000E-01  -0.18150000E-01    1.0000000      -0.21330474
  2158.6900       0.95628300        1.0999209       0.81007450E-01   0.72703578      -0.14958000      -0.43342500        1.0000000      -0.22220138
  2158.7900       0.92896100        1.1029968       0.81017030E-01   0.72703677      -0.17242000       0.28960000        1.0000000      -0.26922561
  2158.8900       0.92179900        1.1059921       0.81026610E-01   0.72703777      -0.91660000E-01   0.33550000        1.0000000      -0.28493860
  2158.9900       0.91062900        1.1089075       0.81036191E-01   0.72703876      -0.10532000      -0.20755000        1.0000000      -0.30672807
  2159.0900       0.90073500        1.1117435       0.81045771E-01   0.72703976      -0.13317000      -0.82200000E-01    1.0000000      -0.32642081
  2159.1900       0.88399500        1.1145007       0.81055351E-01   0.72704075      -0.12176000       0.28130000        1.0000000      -0.35658211
  2159.2900       0.87638300        1.1171797       0.81064932E-01   0.72704175      -0.76910000E-01   0.20080000        1.0000000      -0.37250181
  2159.3900       0.86861300        1.1197811       0.81074512E-01   0.72704274      -0.81600000E-01   0.27650000E-01    1.0000000      -0.38854583
  2159.4900       0.86006300        1.1223054       0.81084092E-01   0.72704373      -0.71380000E-01   0.18560000        1.0000000      -0.40567730
  2159.5900       0.85433700        1.1247532       0.81093673E-01   0.72704473      -0.44480000E-01   0.23752500        1.0000000      -0.41832189
  2159.6900       0.85116700        1.1271252       0.81103253E-01   0.72704572      -0.23875000E-01   0.63875000E-01    1.0000000      -0.42689509
  2159.7900       0.84956200        1.1294219       0.81112833E-01   0.72704672      -0.31705000E-01   0.26575000E-01    1.0000000      -0.43293084
  2159.8900       0.84482600        1.1316439       0.81122414E-01   0.72704771      -0.18560000E-01   0.17362500        1.0000000      -0.44369455
  2159.9900       0.84585000        1.1337918       0.81131994E-01   0.72704871       0.30200000E-02   0.13967500        1.0000000      -0.44543314
  2160.0900       0.84543000        1.1358661       0.81141574E-01   0.72704970       0.93750000E-02   0.85875000E-01    1.0000000      -0.44929179
  2160.1900       0.84772500        1.1378676       0.81151155E-01   0.72705070       0.20195000E-01   0.18175000        1.0000000      -0.44883762
  2160.2900       0.84946900        1.1397966       0.81160735E-01   0.72705169       0.45725000E-01   0.15292500        1.0000000      -0.44912389
  2160.3900       0.85687000        1.1416539       0.81170315E-01   0.72705268       0.50780000E-01  -0.66433333E-01    1.0000000      -0.44054800
  2160.4900       0.85962500        1.1434400       0.81179896E-01   0.72705368       0.32438333E-01  -0.12975000E-01    1.0000000      -0.43904915
  2160.9900       0.87633300        1.1513232       0.81227797E-01   0.72705865       0.42995000E-01   0.28217667E-01    1.0000000      -0.42539758
  2161.4900       0.90262000        1.1575146       0.81275699E-01   0.72706362       0.60656000E-01   0.27305000E-01    1.0000000      -0.39431066
  2161.9900       0.93698900        1.1620876       0.81323601E-01   0.72706860       0.70300000E-01   0.78750000E-02    1.0000000      -0.34821746
  2162.4900       0.97292000        1.1651152       0.81371502E-01   0.72707357       0.68531000E-01  -0.61000000E-02    1.0000000      -0.29731741
  2162.9900        1.0055200        1.1666708       0.81419404E-01   0.72707854       0.64200000E-01   0.69900000E-03    1.0000000      -0.24929307
  2163.4900        1.0371200        1.1668275       0.81467306E-01   0.72708351       0.69230000E-01   0.12200000E-01    1.0000000      -0.20065174
  2163.9900        1.0747500        1.1656586       0.81515207E-01   0.72708849       0.76400000E-01   0.83900000E-02    1.0000000      -0.14063163
  2164.4900        1.1135200        1.1632374       0.81563109E-01   0.72709346       0.77620000E-01  -0.21000000E-03    1.0000000      -0.76910636E-01
  2164.9900        1.1523700        1.1596371       0.81611011E-01   0.72709843       0.76190000E-01  -0.16950000E-01    1.0000000      -0.11241808E-01
  2165.4900        1.1897100        1.1549308       0.81658912E-01   0.72710340       0.60670000E-01  -0.32490000E-01    1.0000000       0.53801908E-01
  2165.9900        1.2130400        1.1491918       0.81706814E-01   0.72710838       0.43700000E-01  -0.57400000E-02    1.0000000       0.98770281E-01
  2166.4900        1.2334100        1.1424934       0.81754716E-01   0.72711335       0.54930000E-01  -0.14930000E-01    1.0000000       0.14064389
  2166.9900        1.2679700        1.1349088       0.81802617E-01   0.72711832       0.28770000E-01  -0.46770000E-01    1.0000000       0.20583972
  2167.4900        1.2621800        1.1265112       0.81850519E-01   0.72712329       0.81600000E-02  -0.12800000E-01    1.0000000       0.20987356
  2167.9900        1.2761300        1.1173739       0.81898421E-01   0.72712827       0.15970000E-01  -0.84600000E-02    1.0000000       0.24558866
  2168.4900        1.2781500        1.1075700       0.81946322E-01   0.72713324      -0.30000000E-03  -0.37730000E-01    1.0000000       0.26387966
  2168.9900        1.2758300        1.0971728       0.81994224E-01   0.72713821      -0.21760000E-01  -0.22700000E-01    1.0000000       0.27637466
  2169.4900        1.2563900        1.0862556       0.82042126E-01   0.72714318      -0.23000000E-01   0.38000000E-03    1.0000000       0.26319030
  2169.9900        1.2528300        1.0748916       0.82090027E-01   0.72714816      -0.21380000E-01  -0.17470000E-01    1.0000000       0.27526282
  2170.4900        1.2350100        1.0631539       0.82137929E-01   0.72715313      -0.40470000E-01  -0.22240000E-01    1.0000000       0.26585370
  2170.9900        1.2123600        1.0511159       0.82185831E-01   0.72715810      -0.43620000E-01  -0.11540000E-01    1.0000000       0.24943743
  2171.4900        1.1913900        1.0388508       0.82233732E-01   0.72716307      -0.52010000E-01  -0.18000000E-01    1.0000000       0.23597142
  2171.9900        1.1603500        1.0264317       0.82281634E-01   0.72716804      -0.61620000E-01  -0.67400000E-02    1.0000000       0.20716565
  2172.4900        1.1297700        1.0139320       0.82329536E-01   0.72717302      -0.58750000E-01  -0.62900000E-02    1.0000000       0.17919628
  2172.9900        1.1016000        1.0014248       0.82377437E-01   0.72717799      -0.67910000E-01  -0.29500000E-02    1.0000000       0.15496659
  2173.4900        1.0618600       0.98898340       0.82425339E-01   0.72718296      -0.61700000E-01   0.16980000E-01    1.0000000       0.11273686
  2173.9900        1.0399000       0.97668103       0.82473241E-01   0.72718793      -0.50930000E-01   0.27640000E-02    1.0000000       0.97796942E-01
  2174.4900        1.0109300       0.96459090       0.82521142E-01   0.72719291      -0.58936000E-01  -0.25060000E-02    1.0000000       0.71684526E-01
  2174.9900       0.98096400       0.95278619       0.82569044E-01   0.72719788      -0.53436000E-01   0.91670000E-02    1.0000000       0.43589824E-01
  2175.4900       0.95749400       0.94131946       0.82616946E-01   0.72720285      -0.49769000E-01   0.23500000E-03    1.0000000       0.25021287E-01
  2175.9900       0.93119500       0.93019398       0.82664847E-01   0.72720782      -0.53201000E-01   0.14400000E-03    1.0000000       0.15485259E-02
  2176.4900       0.90429300       0.91940576       0.82712749E-01   0.72721280      -0.49625000E-01   0.80290000E-02    1.0000000      -0.23378773E-01
  2176.9900       0.88157000       0.90895082       0.82760651E-01   0.72721777      -0.45172000E-01   0.51500000E-02    1.0000000      -0.42356905E-01
  2177.4900       0.85912100       0.89882516       0.82808552E-01   0.72722274      -0.44475000E-01   0.10188000E-01    1.0000000      -0.61420565E-01
  2177.9900       0.83709500       0.88902480       0.82856454E-01   0.72722771      -0.34984000E-01   0.18223000E-01    1.0000000      -0.80333094E-01
  2178.4900       0.82413700       0.87954577       0.82904356E-01   0.72723269      -0.26252000E-01   0.59490000E-02    1.0000000      -0.85714896E-01
  2178.9900       0.81084300       0.87038406       0.82952257E-01   0.72723766      -0.29035000E-01  -0.29310000E-02    1.0000000      -0.92107377E-01
  2179.4900       0.79510200       0.86153571       0.83000159E-01   0.72724263      -0.29183000E-01   0.89810000E-02    1.0000000      -0.10277000
  2179.9900       0.78166000       0.85299672       0.83048061E-01   0.72724760      -0.20054000E-01   0.16997000E-01    1.0000000      -0.11035474
  2180.4900       0.77504800       0.84476311       0.83095962E-01   0.72725258      -0.12186000E-01   0.66250000E-02    1.0000000      -0.10784618
  2180.9900       0.76947400       0.83683090       0.83143864E-01   0.72725755      -0.13429000E-01   0.90500000E-03    1.0000000      -0.10419813
  2181.4900       0.76161900       0.82919610       0.83191766E-01   0.72726252      -0.11281000E-01   0.56390000E-02    1.0000000      -0.10453876
  2181.9900       0.75819300       0.82185472       0.83239667E-01   0.72726749      -0.77900000E-02   0.23120000E-02    1.0000000      -0.98481849E-01
  2182.4900       0.75382900       0.81480278       0.83287569E-01   0.72727247      -0.89690000E-02   0.40720000E-02    1.0000000      -0.94323729E-01
  2182.9900       0.74922400       0.80803630       0.83335471E-01   0.72727744      -0.37180000E-02   0.42750000E-02    1.0000000      -0.90980013E-01
  2183.4900       0.75011100       0.80155129       0.83383372E-01   0.72728241      -0.46940000E-02  -0.50150000E-02    1.0000000      -0.79575840E-01
  2183.9900       0.74453000       0.79534376       0.83431274E-01   0.72728738      -0.87330000E-02   0.32560000E-02    1.0000000      -0.78606633E-01
  2184.4900       0.74137800       0.78940974       0.83479176E-01   0.72729236      -0.14380000E-02   0.69440000E-02    1.0000000      -0.74302966E-01
  2184.9900       0.74309200       0.78374523       0.83527077E-01   0.72729733      -0.17890000E-02  -0.10460000E-02    1.0000000      -0.62888743E-01
  2185.4900       0.73958900       0.77834626       0.83574979E-01   0.72730230      -0.24840000E-02  -0.57300000E-03    1.0000000      -0.59955753E-01
  2185.9900       0.74060800       0.77320883       0.83622881E-01   0.72730727      -0.23620000E-02  -0.12860000E-02    1.0000000      -0.50432030E-01
  2186.4900       0.73722700       0.76832896       0.83670782E-01   0.72731225      -0.37700000E-02   0.40750000E-02    1.0000000      -0.48113349E-01
  2186.9900       0.73683800       0.76370267       0.83718684E-01   0.72731722       0.17130000E-02   0.18940000E-02    1.0000000      -0.41558450E-01
  2187.4900       0.73894000       0.75932597       0.83766586E-01   0.72732219      -0.18760000E-02  -0.74870000E-02    1.0000000      -0.31536193E-01
  2187.9900       0.73496200       0.75519488       0.83814487E-01   0.72732716      -0.57740000E-02  -0.10250000E-02    1.0000000      -0.31299368E-01
  2188.4900       0.73316600       0.75130541       0.83862389E-01   0.72733214      -0.29010000E-02   0.27850000E-02    1.0000000      -0.28060867E-01
  2188.9900       0.73206100       0.74765358       0.83910291E-01   0.72733711      -0.29890000E-02   0.36900000E-03    1.0000000      -0.24121034E-01
  2189.4900       0.73017700       0.74423541       0.83958192E-01   0.72734208      -0.25320000E-02   0.20530000E-02    1.0000000      -0.21747731E-01
  2189.9900       0.72952900       0.74104690       0.84006094E-01   0.72734705      -0.93600000E-03   0.10390000E-02    1.0000000      -0.17817677E-01
  2190.4900       0.72924100       0.73808407       0.84053996E-01   0.72735202      -0.14930000E-02  -0.19650000E-02    1.0000000      -0.13679841E-01
  2190.9900       0.72803600       0.73534295       0.84101897E-01   0.72735700      -0.29010000E-02   0.22060000E-02    1.0000000      -0.11303521E-01
  2191.4900       0.72634000       0.73281953       0.84149799E-01   0.72736197       0.71300000E-03   0.40240000E-02    1.0000000      -0.10023550E-01
  2191.9900       0.72874900       0.73050985       0.84197701E-01   0.72736694       0.11230000E-02  -0.45430000E-02    1.0000000      -0.27239557E-02
  2192.4900       0.72746300       0.72840991       0.84245602E-01   0.72737191      -0.38300000E-02  -0.39260000E-02    1.0000000      -0.14648267E-02
  2192.9900       0.72491900       0.72651573       0.84293504E-01   0.72737689      -0.28030000E-02   0.27700000E-03    1.0000000      -0.24700683E-02
  2193.4900       0.72466000       0.72482332       0.84341406E-01   0.72738186      -0.35530000E-02  -0.25870000E-02    1.0000000      -0.25265260E-03
  2193.9900       0.72136600       0.72332871       0.84389307E-01   0.72738683      -0.53900000E-02   0.46900000E-02    1.0000000      -0.30362187E-02
  2194.4900       0.71927000       0.72202789       0.84437209E-01   0.72739180       0.11370000E-02   0.38450000E-02    1.0000000      -0.42663396E-02
  2194.9900       0.72250300       0.72091690       0.84485111E-01   0.72739678      -0.15450000E-02  -0.22300000E-03    1.0000000       0.24536223E-02
  2195.4900       0.71772500       0.71999175       0.84533012E-01   0.72740175       0.91400000E-03   0.70580000E-02    1.0000000      -0.35065552E-02
  2195.9900       0.72341700       0.71924844       0.84580914E-01   0.72740672       0.55130000E-02  -0.46130000E-02    1.0000000       0.64485771E-02
  2196.4900       0.72323800       0.71868300       0.84628816E-01   0.72741169      -0.36990000E-02  -0.71960000E-02    1.0000000       0.70463834E-02
  2196.9900       0.71971800       0.71829144       0.84676717E-01   0.72741667      -0.16830000E-02   0.69590000E-02    1.0000000       0.22068256E-02
  2197.4900       0.72155500       0.71806978       0.84724619E-01   0.72742164       0.32600000E-02   0.32460000E-02    1.0000000       0.53914870E-02
  2197.9900       0.72297800       0.71801402       0.84772521E-01   0.72742661       0.15630000E-02  -0.21220000E-02    1.0000000       0.76790517E-02
  2198.4900       0.72311800       0.71812020       0.84820422E-01   0.72743158       0.11380000E-02   0.15000000E-04    1.0000000       0.77313797E-02
  2198.9900       0.72411600       0.71838431       0.84868324E-01   0.72743656       0.15780000E-02  -0.16370000E-02    1.0000000       0.88666671E-02
  2199.4900       0.72469600       0.71880238       0.84916226E-01   0.72744153      -0.49900000E-03   0.30400000E-02    1.0000000       0.91171629E-02
  2199.9900       0.72361700       0.71937043       0.84964127E-01   0.72744650       0.46180000E-02   0.30816667E-02    1.0000000       0.65692598E-02
  2200.4900       0.72931400       0.72008446       0.85012029E-01   0.72745147       0.25826667E-02  -0.30220000E-02    1.0000000       0.14277692E-01
  2201.4900       0.72749100       0.72193454       0.85107832E-01   0.72746142       0.85000000E-04   0.66416667E-04    1.0000000       0.85955958E-02
  2202.4900       0.72948400       0.72432075       0.85203636E-01   0.72747136       0.27155000E-02   0.23442500E-02    1.0000000       0.79873123E-02
  2203.4900       0.73292200       0.72721122       0.85299439E-01   0.72748131       0.47735000E-02   0.11740000E-02    1.0000000       0.88343245E-02
  2204.4900       0.73903100       0.73057406       0.85395242E-01   0.72749125       0.50635000E-02   0.13175000E-03    1.0000000       0.13082515E-01
  2205.4900       0.74304900       0.73437739       0.85491046E-01   0.72750120       0.50370000E-02  -0.13045000E-02    1.0000000       0.13414595E-01
  2206.4900       0.74910500       0.73858934       0.85586849E-01   0.72751114       0.24545000E-02  -0.24825000E-03    1.0000000       0.16267260E-01
  2207.4900       0.74795800       0.74317803       0.85682652E-01   0.72752109       0.45405000E-02   0.17282500E-02    1.0000000       0.73944073E-02
  2208.4900       0.75818600       0.74811157       0.85778456E-01   0.72753103       0.59110000E-02  -0.19575000E-03    1.0000000       0.15584692E-01
  2209.4900       0.75978000       0.75335810       0.85874259E-01   0.72754098       0.41490000E-02   0.32400000E-03    1.0000000       0.99343967E-02
  2210.4900       0.76648400       0.75888573       0.85970062E-01   0.72755092       0.65590000E-02   0.10050000E-02    1.0000000       0.11754191E-01
  2211.4900       0.77289800       0.76466258       0.86065866E-01   0.72756087       0.61590000E-02  -0.72425000E-03    1.0000000       0.12739831E-01
  2212.4900       0.77880200       0.77065677       0.86161669E-01   0.72757081       0.51105000E-02  -0.54525000E-03    1.0000000       0.12600301E-01
  2213.4900       0.78311900       0.77683644       0.86257472E-01   0.72758076       0.50685000E-02   0.51800000E-03    1.0000000       0.97188445E-02
  2214.4900       0.78893900       0.78316969       0.86353276E-01   0.72759070       0.61465000E-02   0.84550000E-03    1.0000000       0.89248683E-02
  2215.4900       0.79541200       0.78962465       0.86449079E-01   0.72760065       0.67595000E-02   0.97950000E-03    1.0000000       0.89527752E-02
  2216.4900       0.80245800       0.79616944       0.86544882E-01   0.72761059       0.81055000E-02  -0.64850000E-03    1.0000000       0.97281235E-02
  2217.4900       0.81162300       0.80277218       0.86640686E-01   0.72762054       0.54625000E-02  -0.23547500E-02    1.0000000       0.13691821E-01
  2218.4900       0.81338300       0.80940100       0.86736489E-01   0.72763048       0.33960000E-02   0.13175000E-03    1.0000000       0.61599783E-02
  2219.4900       0.81841500       0.81602401       0.86832292E-01   0.72764043       0.57260000E-02   0.35912500E-02    1.0000000       0.36987538E-02
  2220.4900       0.82483500       0.82260934       0.86928096E-01   0.72765037       0.10578500E-01   0.17485000E-02    1.0000000       0.34429982E-02
  2221.4900       0.83957200       0.82912511       0.87023899E-01   0.72766032       0.92230000E-02  -0.36795000E-02    1.0000000       0.16160881E-01
  2222.4900       0.84328100       0.83553943       0.87119703E-01   0.72767026       0.32195000E-02  -0.34995000E-02    1.0000000       0.11975862E-01
  2223.4900       0.84601100       0.84182044       0.87215506E-01   0.72768021       0.22240000E-02  -0.39050000E-03    1.0000000       0.64826124E-02
  2224.4900       0.84772900       0.84793625       0.87311309E-01   0.72769015       0.24385000E-02   0.14750000E-02    1.0000000      -0.32060287E-03
  2225.4900       0.85088800       0.85385498       0.87407113E-01   0.72770009       0.51740000E-02   0.33872500E-02    1.0000000      -0.45897872E-02
  2226.4900       0.85807700       0.85954476       0.87502916E-01   0.72771004       0.92130000E-02  -0.19150000E-03    1.0000000      -0.22705582E-02
  2227.4900       0.86931400       0.86497370       0.87598719E-01   0.72771998       0.47910000E-02  -0.40405000E-02    1.0000000       0.67142441E-02
  2228.4900       0.86765900       0.87010994       0.87694523E-01   0.72772993       0.11320000E-02   0.25725000E-03    1.0000000      -0.37914919E-02
  2229.4900       0.87157800       0.87492158       0.87790326E-01   0.72773987       0.53055000E-02   0.21810000E-02    1.0000000      -0.51723713E-02
  2230.4900       0.87827000       0.87937676       0.87886129E-01   0.72774982       0.54940000E-02  -0.18465000E-02    1.0000000      -0.17121015E-02
  2231.4900       0.88256600       0.88344358       0.87981933E-01   0.72775976       0.16125000E-02  -0.11940000E-02    1.0000000      -0.13575810E-02
  2232.4900       0.88149500       0.88709018       0.88077736E-01   0.72776971       0.31060000E-02   0.21560000E-02    1.0000000      -0.86555000E-02
  2233.4900       0.88877800       0.89028468       0.88173539E-01   0.72777965       0.59245000E-02  -0.99275000E-03    1.0000000      -0.23307672E-02
  2234.4900       0.89334400       0.89299519       0.88269343E-01   0.72778960       0.11205000E-02  -0.13637500E-02    1.0000000       0.53958773E-03
  2235.4900       0.89101900       0.89518985       0.88365146E-01   0.72779954       0.31970000E-02   0.15077500E-02    1.0000000      -0.64521130E-02
  2236.4900       0.89973800       0.89683676       0.88460949E-01   0.72780949       0.41360000E-02  -0.21900000E-02    1.0000000       0.44880926E-02
  2237.4900       0.89929100       0.89790405       0.88556753E-01   0.72781943      -0.11830000E-02  -0.30275000E-02    1.0000000       0.21455481E-02
  2238.4900       0.89737200       0.89835985       0.88652556E-01   0.72782938      -0.19190000E-02  -0.73600000E-03    1.0000000      -0.15281560E-02
