# XDI/1.0 Athena/0.9.26
# Element.edge:                  K
# Element.symbol:                P
# Column.1:                      energy eV
# Column.2:                      xmu
# Column.3:                      bkg
# Column.4:                      pre_edge
# Column.5:                      post_edge
# Column.6:                      der
# Column.7:                      sec
# Column.8:                      i0
# Column.9:                      chi(e)
# Athena.e0:                     2154
# Athena.eshift:                 0.46
# Athena.rbkg:                   1.0
# Athena.importance:             1
# Athena.standard:               None
# Athena.bkg_kweight:            2
# Athena.edge_step:              0.4733237
# Athena.fixed_step:             no
# Athena.pre_edge_range:         -25 -10
# Athena.pre_edge_line:          3.365042 - 0.0014789 * E
# Athena.normalization_range:    28 58
# Athena.post_edge_polynomial:   2.243920 - 0.000738671 * E + 0 * E^2 + 0 * E^3
# Athena.spline_range_energy:    0.000 85.601
# Athena.clamps:                 0 24
# Athena.spline_range_k:         0.000 4.740
# Athena.kweight:                2
# Athena.window:                 hanning
# Athena.phase_correction:       no
# Athena.k_range:                2.740 3.000
# Athena.dk:                     1
# Athena.r_range:                1 3
# Athena.dr:                     0.0
# Athena.window:                 hanning
# Athena.plot_multiplier:        1
# Athena.y_offset:               0
# ///
#------------------------
#   e         xmu        bkg        pre_edge        post_edge        der        sec        i0        chie
  2125.4600       0.23220800       0.23220800       0.22170680       0.67390448      -0.56510000E-02   0.10746250E-02    1.0000000        0.0000000
  2127.4600       0.22090600       0.22090600       0.21874900       0.67242714      -0.35017500E-02   0.10016875E-02    1.0000000        0.0000000
  2129.4600       0.21820100       0.21820100       0.21579121       0.67094980      -0.16442500E-02   0.42318750E-03    1.0000000        0.0000000
  2131.4600       0.21432900       0.21432900       0.21283342       0.66947246      -0.18090000E-02  -0.73437500E-04    1.0000000        0.0000000
  2133.4600       0.21096500       0.21096500       0.20987562       0.66799511      -0.19380000E-02  -0.19787500E-03    1.0000000        0.0000000
  2135.4600       0.20657700       0.20657700       0.20691783       0.66651777      -0.26005000E-02   0.11006250E-03    1.0000000        0.0000000
  2137.4600       0.20056300       0.20056300       0.20396004       0.66504043      -0.14977500E-02   0.39087500E-03    1.0000000        0.0000000
  2139.4600       0.20058600       0.20058600       0.20100225       0.66356309      -0.10370000E-02  -0.64825000E-03    1.0000000        0.0000000
  2140.4600       0.19745200       0.19745200       0.19952335       0.66282442      -0.34425000E-02   0.42113889E-02    1.0000000        0.0000000
  2140.6600       0.19645500       0.19645500       0.19922757       0.66267668       0.40166667E-02   0.17375000E-01    1.0000000        0.0000000
  2140.7600       0.19865700       0.19865700       0.19907968       0.66260282       0.17700000E-02  -0.45883333E-01    1.0000000        0.0000000
  2140.8600       0.19680900       0.19680900       0.19893179       0.66252895      -0.51600000E-02  -0.60000000E-03    1.0000000        0.0000000
  2140.9600       0.19762500       0.19762500       0.19878390       0.66245508       0.16500000E-02   0.36125000E-01    1.0000000        0.0000000
  2141.0600       0.19713900       0.19713900       0.19863601       0.66238122       0.20650000E-02   0.15925000E-01    1.0000000        0.0000000
  2141.1600       0.19803800       0.19803800       0.19848812       0.66230735       0.48350000E-02  -0.45750000E-02    1.0000000        0.0000000
  2141.2600       0.19810600       0.19810600       0.19834023       0.66223348       0.11500000E-02  -0.35975000E-01    1.0000000        0.0000000
  2141.3600       0.19826800       0.19826800       0.19819234       0.66215961      -0.23600000E-02  -0.49200000E-01    1.0000000        0.0000000
  2141.4600       0.19763400       0.19763400       0.19804445       0.66208575      -0.86900000E-02   0.57250000E-02    1.0000000        0.0000000
  2141.5600       0.19653000       0.19653000       0.19789656       0.66201188      -0.12150000E-02   0.64825000E-01    1.0000000        0.0000000
  2141.6600       0.19739100       0.19739100       0.19774867       0.66193801       0.42750000E-02   0.27875000E-01    1.0000000        0.0000000
  2141.7600       0.19738500       0.19738500       0.19760078       0.66186415       0.43600000E-02  -0.22375000E-01    1.0000000        0.0000000
  2141.8600       0.19826300       0.19826300       0.19745289       0.66179028      -0.20000000E-03  -0.11582500        1.0000000        0.0000000
  2141.9600       0.19734500       0.19734500       0.19730500       0.66171641      -0.18805000E-01  -0.30000000E-02    1.0000000        0.0000000
  2142.0600       0.19450200       0.19450200       0.19715711       0.66164254      -0.80000000E-03   0.13912500        1.0000000        0.0000000
  2142.1600       0.19718500       0.19718500       0.19700923       0.66156868       0.90200000E-02  -0.28875000E-01    1.0000000        0.0000000
  2142.2600       0.19630600       0.19630600       0.19686134       0.66149481      -0.65750000E-02  -0.60675000E-01    1.0000000        0.0000000
  2142.3600       0.19587000       0.19587000       0.19671345       0.66142094      -0.31150000E-02  -0.48250000E-02    1.0000000        0.0000000
  2142.4600       0.19568300       0.19568300       0.19656556       0.66134708      -0.75400000E-02   0.63850000E-01    1.0000000        0.0000000
  2142.5600       0.19436200       0.19436200       0.19641767       0.66127321       0.96550000E-02   0.12165000        1.0000000        0.0000000
  2142.6600       0.19761400       0.19761400       0.19626978       0.66119934       0.16790000E-01  -0.55075000E-01    1.0000000        0.0000000
  2142.7600       0.19772000       0.19772000       0.19612189       0.66112548      -0.13600000E-02  -0.13482500        1.0000000        0.0000000
  2142.8600       0.19734200       0.19734200       0.19597400       0.66105161      -0.10175000E-01  -0.46000000E-01    1.0000000        0.0000000
  2142.9600       0.19568500       0.19568500       0.19582611       0.66097774      -0.10560000E-01   0.10385000        1.0000000        0.0000000
  2143.0600       0.19523000       0.19523000       0.19567822       0.66090387       0.10595000E-01   0.12960000        1.0000000        0.0000000
  2143.1600       0.19780400       0.19780400       0.19553033       0.66083001       0.15360000E-01  -0.11375000        1.0000000        0.0000000
  2143.2600       0.19830200       0.19830200       0.19538244       0.66075614      -0.12155000E-01  -0.10375000        1.0000000        0.0000000
  2143.3600       0.19537300       0.19537300       0.19523455       0.66068227      -0.53900000E-02   0.84200000E-01    1.0000000        0.0000000
  2143.4600       0.19722400       0.19722400       0.19508666       0.66060841       0.46850000E-02  -0.22950000E-01    1.0000000        0.0000000
  2143.5600       0.19631000       0.19631000       0.19493877       0.66053454      -0.99800000E-02  -0.39175000E-01    1.0000000        0.0000000
  2143.6600       0.19522800       0.19522800       0.19479088       0.66046067      -0.31500000E-02   0.66850000E-01    1.0000000        0.0000000
  2143.7600       0.19568000       0.19568000       0.19464299       0.66038680       0.33900000E-02   0.49525000E-01    1.0000000        0.0000000
  2143.8600       0.19590600       0.19590600       0.19449510       0.66031294       0.67550000E-02  -0.78675000E-01    1.0000000        0.0000000
  2143.9600       0.19703100       0.19703100       0.19434721       0.66023907      -0.12345000E-01  -0.46100000E-01    1.0000000        0.0000000
  2144.0600       0.19343700       0.19343700       0.19419932       0.66016520      -0.24650000E-02   0.16692500        1.0000000        0.0000000
  2144.1600       0.19653800       0.19653800       0.19405143       0.66009134       0.21040000E-01  -0.24000000E-02    1.0000000        0.0000000
  2144.2600       0.19764500       0.19764500       0.19390354       0.66001747      -0.29450000E-02  -0.20630000        1.0000000        0.0000000
  2144.3600       0.19594900       0.19594900       0.19375565       0.65994360      -0.20220000E-01   0.42525000E-01    1.0000000        0.0000000
  2144.4600       0.19360100       0.19360100       0.19360776       0.65986973       0.55600000E-02   0.22242500        1.0000000        0.0000000
  2144.5600       0.19706100       0.19706100       0.19345987       0.65979587       0.24265000E-01  -0.75725000E-01    1.0000000        0.0000000
  2144.6600       0.19845400       0.19845400       0.19331198       0.65972200      -0.95850000E-02  -0.11987500        1.0000000        0.0000000
  2144.7600       0.19514400       0.19514400       0.19316409       0.65964813       0.29000000E-03   0.10365000        1.0000000        0.0000000
  2144.8600       0.19851200       0.19851200       0.19301620       0.65957427       0.11145000E-01  -0.59475000E-01    1.0000000        0.0000000
  2144.9600       0.19737300       0.19737300       0.19286831       0.65950040      -0.11605000E-01  -0.21300000E-01    1.0000000        0.0000000
  2145.0600       0.19619100       0.19619100       0.19272043       0.65942653       0.68850000E-02   0.13285000        1.0000000        0.0000000
  2145.1600       0.19875000       0.19875000       0.19257254       0.65935267       0.14965000E-01  -0.50675000E-01    1.0000000        0.0000000
  2145.2600       0.19918400       0.19918400       0.19242465       0.65927880      -0.32500000E-02  -0.45350000E-01    1.0000000        0.0000000
  2145.3600       0.19810000       0.19810000       0.19227676       0.65920493       0.58950000E-02   0.86125000E-01    1.0000000        0.0000000
  2145.4600       0.20036300       0.20036300       0.19212887       0.65913106       0.13975000E-01  -0.32975000E-01    1.0000000        0.0000000
  2145.5600       0.20089500       0.20089500       0.19198098       0.65905720      -0.70000000E-03  -0.97000000E-01    1.0000000        0.0000000
  2145.6600       0.20022300       0.20022300       0.19183309       0.65898333      -0.54250000E-02  -0.17550000E-01    1.0000000        0.0000000
  2145.7600       0.19981000       0.19981000       0.19168520       0.65890946      -0.42100000E-02   0.15900000E-01    1.0000000        0.0000000
  2145.8600       0.19938100       0.19938100       0.19153731       0.65883560      -0.22450000E-02   0.54600000E-01    1.0000000        0.0000000
  2145.9600       0.19936100       0.19936100       0.19138942       0.65876173       0.67100000E-02   0.69150000E-01    1.0000000        0.0000000
  2146.0600       0.20072300       0.20072300       0.19124153       0.65868786       0.11585000E-01  -0.19275000E-01    1.0000000        0.0000000
  2146.1600       0.20167800       0.20167800       0.19109364       0.65861399       0.28550000E-02  -0.67250000E-02    1.0000000        0.0000000
  2146.2600       0.20129400       0.20129400       0.19094575       0.65854013       0.10240000E-01   0.33775000E-01    1.0000000        0.0000000
  2146.3600       0.20372600       0.20372600       0.19079786       0.65846626       0.96100000E-02  -0.57600000E-01    1.0000000        0.0000000
  2146.4600       0.20321600       0.20321600       0.19064997       0.65839239      -0.12800000E-02  -0.21850000E-01    1.0000000        0.0000000
  2146.5600       0.20347000       0.20347000       0.19050208       0.65831853       0.52400000E-02   0.24325000E-01    1.0000000        0.0000000
  2146.6600       0.20426400       0.20426400       0.19035419       0.65824466       0.35850000E-02   0.12075000E-01    1.0000000        0.0000000
  2146.7600       0.20418700       0.20418700       0.19020630       0.65817079       0.76550000E-02   0.15375000E-01    1.0000000        0.0000000
  2146.8600       0.20579500       0.20579500       0.19005841       0.65809693       0.66600000E-02  -0.73275000E-01    1.0000000        0.0000000
  2146.9600       0.20551900       0.20551900       0.18991052       0.65802306      -0.70000000E-02  -0.15450000E-01    1.0000000        0.0000000
  2147.0600       0.20439500       0.20439500       0.18976263       0.65794919       0.35700000E-02   0.12752500        1.0000000        0.0000000
  2147.1600       0.20623300       0.20623300       0.18961474       0.65787532       0.18505000E-01   0.82050000E-01    1.0000000        0.0000000
  2147.2600       0.20809600       0.20809600       0.18946685       0.65780146       0.19980000E-01  -0.35100000E-01    1.0000000        0.0000000
  2147.3600       0.21022900       0.21022900       0.18931896       0.65772759       0.11485000E-01  -0.87100000E-01    1.0000000        0.0000000
  2147.4600       0.21039300       0.21039300       0.18917107       0.65765372       0.25600000E-02  -0.14625000E-01    1.0000000        0.0000000
  2147.5600       0.21074100       0.21074100       0.18902318       0.65757986       0.85600000E-02   0.70075000E-01    1.0000000        0.0000000
  2147.6600       0.21210500       0.21210500       0.18887529       0.65750599       0.16575000E-01   0.47400000E-01    1.0000000        0.0000000
  2147.7600       0.21405600       0.21405600       0.18872740       0.65743212       0.18040000E-01  -0.27075000E-01    1.0000000        0.0000000
  2147.8600       0.21571300       0.21571300       0.18857951       0.65735825       0.11160000E-01  -0.17075000E-01    1.0000000        0.0000000
  2147.9600       0.21628800       0.21628800       0.18843163       0.65728439       0.14625000E-01   0.34350000E-01    1.0000000        0.0000000
  2148.0600       0.21863800       0.21863800       0.18828374       0.65721052       0.18030000E-01   0.31000000E-02    1.0000000        0.0000000
  2148.1600       0.21989400       0.21989400       0.18813585       0.65713665       0.15245000E-01   0.53350000E-01    1.0000000        0.0000000
  2148.2600       0.22168700       0.22168700       0.18798796       0.65706279       0.28700000E-01   0.65525000E-01    1.0000000        0.0000000
  2148.3600       0.22563400       0.22563400       0.18784007       0.65698892       0.28350000E-01  -0.37150000E-01    1.0000000        0.0000000
  2148.4600       0.22735700       0.22735700       0.18769218       0.65691505       0.21270000E-01   0.26750000E-01    1.0000000        0.0000000
  2148.5600       0.22988800       0.22988800       0.18754429       0.65684118       0.33700000E-01   0.28775000E-01    1.0000000        0.0000000
  2148.6600       0.23409700       0.23409700       0.18739640       0.65676732       0.27025000E-01  -0.16737500        1.0000000        0.0000000
  2148.7600       0.23529300       0.23529300       0.18724851       0.65669345       0.22500000E-03   0.10775000E-01    1.0000000        0.0000000
  2148.8600       0.23414200       0.23414200       0.18710062       0.65661958       0.29180000E-01   0.23587500        1.0000000        0.0000000
  2148.9600       0.24112900       0.24112900       0.18695273       0.65654572       0.47400000E-01   0.57350000E-01    1.0000000        0.0000000
  2149.0600       0.24362200       0.24362200       0.18680484       0.65647185       0.40650000E-01   0.45450000E-01    1.0000000        0.0000000
  2149.1600       0.24925900       0.24925900       0.18665695       0.65639798       0.56490000E-01   0.25400000E-01    1.0000000        0.0000000
  2149.2600       0.25492000       0.25492000       0.18650906       0.65632412       0.45730000E-01  -0.69150000E-01    1.0000000        0.0000000
  2149.3600       0.25840500       0.25840500       0.18636117       0.65625025       0.42660000E-01   0.10337500        1.0000000        0.0000000
  2149.4600       0.26345200       0.26345200       0.18621328       0.65617638       0.66405000E-01   0.18670000        1.0000000        0.0000000
  2149.5600       0.27168600       0.27168600       0.18606539       0.65610251       0.80000000E-01   0.10957500        1.0000000        0.0000000
  2149.6600       0.27945200       0.27945200       0.18591750       0.65602865       0.88320000E-01   0.15562500        1.0000000        0.0000000
  2149.7600       0.28935000       0.28935000       0.18576961       0.65595478       0.11112500       0.12575000        1.0000000        0.0000000
  2149.8600       0.30167700       0.30167700       0.18562172       0.65588091       0.11347000       0.11617500        1.0000000        0.0000000
  2149.9600       0.31204400       0.31204400       0.18547383       0.65580705       0.13436000       0.27197500        1.0000000        0.0000000
  2150.0600       0.32854900       0.32854900       0.18532594       0.65573318       0.16786500       0.41487500        1.0000000        0.0000000
  2150.1600       0.34561700       0.34561700       0.18517805       0.65565931       0.21733500       0.60917500        1.0000000        0.0000000
  2150.2600       0.37201600       0.37201600       0.18503016       0.65558544       0.28970000       0.69095000        1.0000000        0.0000000
  2150.3600       0.40355700       0.40355700       0.18488227       0.65551158       0.35552500       0.71902500        1.0000000        0.0000000
  2150.4600       0.44312100       0.44312100       0.18473438       0.65543771       0.43350500       0.68090000        1.0000000        0.0000000
  2150.5600       0.49025800       0.49025800       0.18458649       0.65536384       0.49170500       0.67200000        1.0000000        0.0000000
  2150.6600       0.54146200       0.54146200       0.18443860       0.65528998       0.56790500       0.96772500        1.0000000        0.0000000
  2150.7600       0.60383900       0.60383900       0.18429071       0.65521611       0.68525000        1.0860000        1.0000000        0.0000000
  2150.8600       0.67851200       0.67851200       0.18414283       0.65514224       0.78510500       0.97367500        1.0000000        0.0000000
  2150.9600       0.76086000       0.76086000       0.18399494       0.65506837       0.87998500        1.2364500        1.0000000        0.0000000
  2151.0600       0.85450900       0.85450900       0.18384705       0.65499451        1.0323950        1.4736000        1.0000000        0.0000000
  2151.1600       0.96733900       0.96733900       0.18369916       0.65492064        1.1747050        1.7035500        1.0000000        0.0000000
  2151.2600        1.0894500        1.0894500       0.18355127       0.65484677        1.3731050        3.1277250        1.0000000        0.0000000
  2151.3600        1.2419600        1.2419600       0.18340338       0.65477291        1.8002500        4.4239750        1.0000000        0.0000000
  2151.4600        1.4495000        1.4495000       0.18325549       0.65469904        2.2579000        4.3002500        1.0000000        0.0000000
  2151.5600        1.6935400        1.6935400       0.18310760       0.65462517        2.6603000        4.0135000        1.0000000        0.0000000
  2151.6600        1.9815600        1.9815600       0.18295971       0.65455131        3.0606000        2.6767500        1.0000000        0.0000000
  2151.7600        2.3056600        2.3056600       0.18281182       0.65447744        3.1956500      -0.44150000        1.0000000        0.0000000
  2151.8600        2.6206900        2.6206900       0.18266393       0.65440357        2.9723000       -3.1970000        1.0000000        0.0000000
  2151.9600        2.9001200        2.9001200       0.18251604       0.65432970        2.5562500       -5.0097500        1.0000000        0.0000000
  2152.0600        3.1319400        3.1319400       0.18236815       0.65425584        1.9703500       -6.0487500        1.0000000        0.0000000
  2152.1600        3.2941900        3.2941900       0.18222026       0.65418197        1.3465000       -6.3985000        1.0000000        0.0000000
  2152.2600        3.4012400        3.4012400       0.18207237       0.65410810       0.69065000       -6.1120000        1.0000000        0.0000000
  2152.3600        3.4323200        3.4323200       0.18192448       0.65403424       0.12410000       -4.5015000        1.0000000        0.0000000
  2152.4600        3.4260600        3.4260600       0.18177659       0.65396037      -0.20965000       -3.3625000        1.0000000        0.0000000
  2152.5600        3.3903900        3.3903900       0.18162870       0.65388650      -0.54840000       -3.0667500        1.0000000        0.0000000
  2152.6600        3.3163800        3.3163800       0.18148081       0.65381263      -0.82300000       -2.5372500        1.0000000        0.0000000
  2152.7600        3.2257900        3.2257900       0.18133292       0.65373877       -1.0558500       -2.2485000        1.0000000        0.0000000
  2152.8600        3.1052100        3.1052100       0.18118503       0.65366490       -1.2727000       -1.9877500        1.0000000        0.0000000
  2152.9600        2.9712500        2.9712500       0.18103714       0.65359103       -1.4534000       -1.0117500        1.0000000        0.0000000
  2153.0600        2.8145300        2.8145300       0.18088925       0.65351717       -1.4750500       0.22500000        1.0000000        0.0000000
  2153.1600        2.6762400        2.6762400       0.18074136       0.65344330       -1.4084000       0.25925000        1.0000000        0.0000000
  2153.2600        2.5328500        2.5328500       0.18059347       0.65336943       -1.4232000       0.61425000        1.0000000        0.0000000
  2153.3600        2.3916000        2.3916000       0.18044558       0.65329556       -1.2855500        1.3162500        1.0000000        0.0000000
  2153.4600        2.2757400        2.2757400       0.18029769       0.65322170       -1.1599500       0.74875000        1.0000000        0.0000000
  2153.5600        2.1596100        2.1596100       0.18014980       0.65314783       -1.1358000       0.85250000        1.0000000        0.0000000
  2153.6600        2.0485800        2.0485800       0.18000191       0.65307396      -0.98945000        1.6142500        1.0000000        0.0000000
  2153.7600        1.9617200        1.9617200       0.17985403       0.65300010      -0.81295000        1.4332500        1.0000000        0.0000000
  2153.8600        1.8859900        1.8859900       0.17970614       0.65292623      -0.70280000        1.0767500        1.0000000        0.0000000
  2153.9600        1.8211600        1.8211600       0.17955825       0.65285236      -0.59760000        1.0287500        1.0000000        0.0000000
  2154.0600        1.7664700       0.86954226       0.17941036       0.65277850      -0.49705000       0.82000000        1.0000000        1.8949563
  2154.1600        1.7217500       0.87348573       0.17926247       0.65270463      -0.43360000       0.60100000        1.0000000        1.7921441
  2154.2600        1.6797500       0.87736197       0.17911458       0.65263076      -0.37685000       0.60200000        1.0000000        1.6952205
  2154.3600        1.6463800       0.88117134       0.17896669       0.65255689      -0.31320000       0.71825000        1.0000000        1.6166709
  2154.4600        1.6171100       0.88491423       0.17881880       0.65248303      -0.23320000       0.51100000        1.0000000        1.5469239
  2154.5600        1.5997400       0.88859103       0.17867091       0.65240916      -0.21100000       0.32475000        1.0000000        1.5024580
  2154.6600        1.5749100       0.89220212       0.17852302       0.65233529      -0.16825000       0.37500000E-01    1.0000000        1.4423699
  2154.7600        1.5660900       0.89574788       0.17837513       0.65226143      -0.20350000      -0.41825000        1.0000000        1.4162446
  2154.8600        1.5342100       0.89922868       0.17822724       0.65218756      -0.25190000       0.52500000E-02    1.0000000        1.3415371
  2154.9600        1.5157100       0.90264492       0.17807935       0.65211369      -0.20245000       0.20625000        1.0000000        1.2952343
  2155.0600        1.4937200       0.90599697       0.17793146       0.65203982      -0.21065000      -0.28450000        1.0000000        1.2416936
  2155.1600        1.4735800       0.90928521       0.17778357       0.65196596      -0.25935000      -0.47850000        1.0000000        1.1921963
  2155.2600        1.4418500       0.91251004       0.17763568       0.65189209      -0.30635000       0.14750000E-01    1.0000000        1.1183466
  2155.3600        1.4123100       0.91567182       0.17748779       0.65181822      -0.25640000       0.37500000E-02    1.0000000        1.0492569
  2155.4600        1.3905700       0.91877094       0.17733990       0.65174436      -0.30560000      -0.22650000        1.0000000       0.99677886
  2155.5600        1.3511900       0.92180779       0.17719201       0.65167049      -0.30170000       0.16025000        1.0000000       0.90716398
  2155.6600        1.3302300       0.92478274       0.17704412       0.65159662      -0.27355000      -0.23075000        1.0000000       0.85659616
  2155.7600        1.2964800       0.92769617       0.17689623       0.65152276      -0.34785000      -0.16300000        1.0000000       0.77913662
  2155.8600        1.2606600       0.93054848       0.17674834       0.65144889      -0.30615000       0.23150000        1.0000000       0.69743291
  2155.9600        1.2352500       0.93334003       0.17660045       0.65137502      -0.30155000      -0.11100000        1.0000000       0.63785095
  2156.0600        1.2003500       0.93607121       0.17645256       0.65130115      -0.32835000      -0.93750000E-01    1.0000000       0.55834683
  2156.1600        1.1695800       0.93874241       0.17630467       0.65122729      -0.32030000       0.22125000        1.0000000       0.48769498
  2156.2600        1.1362900       0.94135400       0.17615678       0.65115342      -0.28410000       0.37725000        1.0000000       0.41184500
  2156.3600        1.1127600       0.94390637       0.17600889       0.65107955      -0.24485000      -0.13175000        1.0000000       0.35674028
  2156.4600        1.0873200       0.94639990       0.17586100       0.65100569      -0.31045000      -0.20725000        1.0000000       0.29772459
  2156.5600        1.0506700       0.94883496       0.17571311       0.65093182      -0.28630000       0.68775000        1.0000000       0.21514882
  2156.6600        1.0300600       0.95121195       0.17556523       0.65085795      -0.17290000       0.34695000        1.0000000       0.16658378
  2156.7600        1.0160900       0.95353124       0.17541734       0.65078408      -0.21691000      -0.35717500        1.0000000       0.13216908
  2156.8600       0.98667800       0.95579322       0.17526945       0.65071022      -0.24433500       0.72425000E-01    1.0000000       0.65250862E-01
  2156.9600       0.96722300       0.95799827       0.17512156       0.65063635      -0.20242500       0.34647500        1.0000000       0.19489273E-01
  2157.0600       0.94619300       0.96014676       0.17497367       0.65056248      -0.17504000       0.31495000        1.0000000      -0.29480371E-01
  2157.1600       0.93221500       0.96223908       0.17482578       0.65048862      -0.13943500       0.32627500        1.0000000      -0.63432451E-01
  2157.2600       0.91830600       0.96427562       0.17467789       0.65041475      -0.10978500       0.63575000E-01    1.0000000      -0.97120890E-01
  2157.3600       0.91025800       0.96625675       0.17453000       0.65034088      -0.12672000      -0.27492500        1.0000000      -0.11830963
  2157.4600       0.89296200       0.96818286       0.17438211       0.65026701      -0.16477000      -0.74050000E-01    1.0000000      -0.15892054
  2157.5600       0.87730400       0.97005432       0.17423422       0.65019315      -0.14153000       0.25315000        1.0000000      -0.19595537
  2157.6600       0.86465600       0.97187152       0.17408633       0.65011928      -0.11414000       0.18467500        1.0000000      -0.22651628
  2157.7600       0.85447600       0.97363485       0.17393844       0.65004541      -0.10459500      -0.11330000        1.0000000      -0.25174917
  2157.8600       0.84373700       0.97534468       0.17379055       0.64997155      -0.13680000      -0.15350000E-01    1.0000000      -0.27805005
  2157.9600       0.82711600       0.97700139       0.17364266       0.64989768      -0.10766500       0.27240000        1.0000000      -0.31666572
  2158.0600       0.82220400       0.97860537       0.17349477       0.64982381      -0.82320000E-01   0.94300000E-01    1.0000000      -0.33043216
  2158.1600       0.81065200       0.98015700       0.17334688       0.64974995      -0.88805000E-01  -0.45975000E-01    1.0000000      -0.35811644
  2158.2600       0.80444300       0.98165666       0.17319899       0.64967608      -0.91515000E-01  -0.18667500        1.0000000      -0.37440267
  2158.3600       0.79234900       0.98310473       0.17305110       0.64960221      -0.12614000       0.65750000E-02    1.0000000      -0.40301326
  2158.4600       0.77921500       0.98450159       0.17290321       0.64952834      -0.90200000E-01   0.48342500        1.0000000      -0.43371289
  2158.5600       0.77430900       0.98584763       0.17275532       0.64945448      -0.29455000E-01   0.78000000E-01    1.0000000      -0.44692169
  2158.6600       0.77332400       0.98714322       0.17260743       0.64938061      -0.74600000E-01  -0.42715000        1.0000000      -0.45173995
  2158.7600       0.75938900       0.98838876       0.17245954       0.64930674      -0.11488500       0.90375000E-01    1.0000000      -0.48381215
  2158.8600       0.75034700       0.98958461       0.17231165       0.64923288      -0.56525000E-01   0.40987500        1.0000000      -0.50544186
  2158.9600       0.74808400       0.99073117       0.17216376       0.64915901      -0.32910000E-01   0.15392500        1.0000000      -0.51264530
  2159.0600       0.74376500       0.99182881       0.17201587       0.64908514      -0.25740000E-01   0.82250000E-02    1.0000000      -0.52408914
  2159.1600       0.74293600       0.99287792       0.17186798       0.64901127      -0.31265000E-01   0.37025000E-01    1.0000000      -0.52805706
  2159.2600       0.73751200       0.99387888       0.17172009       0.64893741      -0.18335000E-01   0.11645000        1.0000000      -0.54163118
  2159.3600       0.73926900       0.99483206       0.17157220       0.64886354      -0.79750000E-02   0.30800000E-01    1.0000000      -0.53993295
  2159.4600       0.73591700       0.99573786       0.17142432       0.64878967      -0.12175000E-01   0.16837500        1.0000000      -0.54892848
  2159.5600       0.73683400       0.99659665       0.17127643       0.64871581       0.25700000E-01   0.13185000        1.0000000      -0.54880549
  2159.6600       0.74105700       0.99740881       0.17112854       0.64864194       0.14195000E-01  -0.87100000E-01    1.0000000      -0.54159936
  2159.7600       0.73967300       0.99817473       0.17098065       0.64856807       0.82800000E-02   0.80150000E-01    1.0000000      -0.54614153
  2159.8600       0.74271300       0.99889479       0.17083276       0.64849420       0.30225000E-01   0.15052500        1.0000000      -0.54124015
  2159.9600       0.74571800       0.99956937       0.17068487       0.64842034       0.38385000E-01   0.81025000E-01    1.0000000      -0.53631662
  2160.0600       0.75039000        1.0001988       0.17053698       0.64834647       0.46430000E-01   0.10910000        1.0000000      -0.52777592
  2160.1600       0.75500400        1.0007836       0.17038909       0.64827260       0.60205000E-01   0.10275000E-01    1.0000000      -0.51926327
  2160.2600       0.76243100        1.0013240       0.17024120       0.64819874       0.48485000E-01  -0.66725000E-01    1.0000000      -0.50471389
  2160.3600       0.76470100        1.0018205       0.17009331       0.64812487       0.46860000E-01   0.41616667E-01    1.0000000      -0.50096693
  2160.4600       0.77180300        1.0022734       0.16994542       0.64805100       0.56808333E-01   0.25665000E-01    1.0000000      -0.48691926
  2160.9600       0.79878600        1.0038977       0.16920597       0.64768167       0.62259000E-01   0.20102667E-01    1.0000000      -0.43334350
  2161.4600       0.83406200        1.0044901       0.16846652       0.64731233       0.76911000E-01   0.15777000E-01    1.0000000      -0.36006660
  2161.9600       0.87569700        1.0040981       0.16772707       0.64694300       0.78036000E-01  -0.26251000E-01    1.0000000      -0.27127540
  2162.4600       0.91209800        1.0027695       0.16698763       0.64657366       0.50660000E-01  -0.60370000E-01    1.0000000      -0.19156344
  2162.9600       0.92635700        1.0005521       0.16624818       0.64620433       0.17666000E-01  -0.51608000E-01    1.0000000      -0.15675342
  2163.4600       0.92976400       0.99749357       0.16550873       0.64583499      -0.94800000E-03  -0.97760000E-02    1.0000000      -0.14309355
  2163.9600       0.92540900       0.99364162       0.16476928       0.64546565       0.78900000E-02   0.33139000E-01    1.0000000      -0.14415635
  2164.4600       0.93765400       0.98904398       0.16402983       0.64509632       0.32191000E-01   0.34339000E-01    1.0000000      -0.10857258
  2164.9600       0.95760000       0.98374836       0.16329038       0.64472698       0.42229000E-01   0.11099000E-01    1.0000000      -0.55244147E-01
  2165.4600       0.97988300       0.97780250       0.16255094       0.64435765       0.43290000E-01  -0.10520000E-02    1.0000000       0.43955065E-02
  2165.9600        1.0008900       0.97125411       0.16181149       0.64398831       0.41177000E-01  -0.80100000E-02    1.0000000       0.62612305E-01
  2166.4600        1.0210600       0.96415091       0.16107204       0.64361898       0.35280000E-01  -0.11467000E-01    1.0000000       0.12023291
  2166.9600        1.0361700       0.95654063       0.16033259       0.64324964       0.29710000E-01  -0.12770000E-01    1.0000000       0.16823450
  2167.4600        1.0507700       0.94847097       0.15959314       0.64288031       0.22510000E-01  -0.13880000E-01    1.0000000       0.21612911
  2167.9600        1.0586800       0.93998967       0.15885369       0.64251097       0.15830000E-01  -0.80900000E-02    1.0000000       0.25075932
  2168.4600        1.0666000       0.93114444       0.15811425       0.64214164       0.14420000E-01  -0.11910000E-01    1.0000000       0.28617954
  2168.9600        1.0731000       0.92198301       0.15737480       0.64177230       0.39200000E-02  -0.25860000E-01    1.0000000       0.31926775
  2169.4600        1.0705200       0.91255309       0.15663535       0.64140297      -0.11440000E-01  -0.27580000E-01    1.0000000       0.33373971
  2169.9600        1.0616600       0.90290240       0.15589590       0.64103363      -0.23660000E-01  -0.33280000E-01    1.0000000       0.33541020
  2170.4600        1.0468600       0.89307867       0.15515645       0.64066429      -0.44720000E-01  -0.25298000E-01    1.0000000       0.32489674
  2170.9600        1.0169400       0.88312962       0.15441700       0.64029496      -0.48958000E-01   0.68260000E-02    1.0000000       0.28270374
  2171.4600       0.99790200       0.87310296       0.15367756       0.63992562      -0.37894000E-01   0.10091000E-01    1.0000000       0.26366531
  2171.9600       0.97904600       0.86304642       0.15293811       0.63955629      -0.38867000E-01  -0.34020000E-02    1.0000000       0.24507452
  2172.4600       0.95903500       0.85300772       0.15219866       0.63918695      -0.41296000E-01  -0.10250000E-01    1.0000000       0.22400586
  2172.9600       0.93775000       0.84303457       0.15145921       0.63881762      -0.49117000E-01  -0.93800000E-02    1.0000000       0.20010709
  2173.4600       0.90991800       0.83317471       0.15071976       0.63844828      -0.50676000E-01  -0.54710000E-02    1.0000000       0.16213702
  2173.9600       0.88707400       0.82347584       0.14998032       0.63807895      -0.54588000E-01  -0.43940000E-02    1.0000000       0.13436505
  2174.4600       0.85533000       0.81398568       0.14924087       0.63770961      -0.55070000E-01   0.65610000E-02    1.0000000       0.87348929E-01
  2174.9600       0.83200400       0.80474085       0.14850142       0.63734028      -0.48027000E-01   0.10120000E-01    1.0000000       0.57599374E-01
  2175.4600       0.80730300       0.79574488       0.14776197       0.63697094      -0.44950000E-01   0.65070000E-02    1.0000000       0.24419064E-01
  2175.9600       0.78705400       0.78699516       0.14702252       0.63660161      -0.41520000E-01   0.11880000E-02    1.0000000       0.12431721E-03
  2176.4600       0.76578300       0.77848908       0.14628307       0.63623227      -0.43762000E-01  -0.18130000E-02    1.0000000      -0.26844387E-01
  2176.9600       0.74329200       0.77022405       0.14554363       0.63586293      -0.43333000E-01   0.67350000E-02    1.0000000      -0.56899861E-01
  2177.4600       0.72245000       0.76219746       0.14480418       0.63549360      -0.37027000E-01   0.16430000E-01    1.0000000      -0.83975211E-01
  2177.9600       0.70626500       0.75440669       0.14406473       0.63512426      -0.26903000E-01   0.13721000E-01    1.0000000      -0.10170987
  2178.4600       0.69554700       0.74684916       0.14332528       0.63475493      -0.23306000E-01   0.22770000E-02    1.0000000      -0.10838704
  2178.9600       0.68295900       0.73952224       0.14258583       0.63438559      -0.24626000E-01   0.64670000E-02    1.0000000      -0.11950223
  2179.4600       0.67092100       0.73242333       0.14184638       0.63401626      -0.16839000E-01   0.11814000E-01    1.0000000      -0.12993715
  2179.9600       0.66612000       0.72554984       0.14110694       0.63364692      -0.12812000E-01   0.21430000E-02    1.0000000      -0.12555856
  2180.4600       0.65810900       0.71889915       0.14036749       0.63327759      -0.14696000E-01   0.21730000E-02    1.0000000      -0.12843251
  2180.9600       0.65142400       0.71246866       0.13962804       0.63290825      -0.10639000E-01   0.56250000E-02    1.0000000      -0.12897022
  2181.4600       0.64747000       0.70625577       0.13888859       0.63253892      -0.90710000E-02   0.20800000E-02    1.0000000      -0.12419781
  2181.9600       0.64235300       0.70025786       0.13814914       0.63216958      -0.85590000E-02   0.33710000E-02    1.0000000      -0.12233670
  2182.4600       0.63891100       0.69447233       0.13740969       0.63180024      -0.57000000E-02   0.72630000E-02    1.0000000      -0.11738549
  2182.9600       0.63665300       0.68889659       0.13667025       0.63143091      -0.12960000E-02   0.74510000E-02    1.0000000      -0.11037602
  2183.4600       0.63761500       0.68352801       0.13593080       0.63106157       0.17510000E-02  -0.28260000E-02    1.0000000      -0.97001291E-01
  2183.9600       0.63840400       0.67836400       0.13519135       0.63069224      -0.41220000E-02  -0.44590000E-02    1.0000000      -0.84424257E-01
  2184.4600       0.63349300       0.67340196       0.13445190       0.63032290      -0.27080000E-02   0.84550000E-02    1.0000000      -0.84316410E-01
  2184.9600       0.63569600       0.66863927       0.13371245       0.62995357       0.43330000E-02   0.50640000E-02    1.0000000      -0.69599864E-01
  2185.4600       0.63782600       0.66407333       0.13297301       0.62958423       0.23560000E-02  -0.10192000E-01    1.0000000      -0.55453225E-01
  2185.9600       0.63805200       0.65970153       0.13223356       0.62921490      -0.58590000E-02  -0.58000000E-02    1.0000000      -0.45739379E-01
  2186.4600       0.63196700       0.65552128       0.13149411       0.62884556      -0.34440000E-02   0.80360000E-02    1.0000000      -0.49763573E-01
  2186.9600       0.63460800       0.65152996       0.13075466       0.62847623       0.21770000E-02  -0.73300000E-03    1.0000000      -0.35751347E-01
  2187.4600       0.63414400       0.64772497       0.13001521       0.62810689      -0.41770000E-02  -0.60130000E-02    1.0000000      -0.28692776E-01
  2187.9600       0.63043100       0.64410371       0.12927576       0.62773756      -0.38360000E-02  -0.55000000E-04    1.0000000      -0.28886587E-01
  2188.4600       0.63030800       0.64066356       0.12853632       0.62736822      -0.42320000E-02  -0.17870000E-02    1.0000000      -0.21878390E-01
  2188.9600       0.62619900       0.63740193       0.12779687       0.62699888      -0.56230000E-02  -0.14860000E-02    1.0000000      -0.23668639E-01
  2189.4600       0.62468500       0.63431620       0.12705742       0.62662955      -0.57180000E-02   0.25210000E-02    1.0000000      -0.20348028E-01
  2189.9600       0.62048100       0.63140378       0.12631797       0.62626021      -0.31020000E-02   0.36060000E-02    1.0000000      -0.23076771E-01
  2190.4600       0.62158300       0.62866206       0.12557852       0.62589088      -0.21120000E-02   0.70000000E-05    1.0000000      -0.14956062E-01
  2190.9600       0.61836900       0.62608843       0.12483907       0.62552154      -0.30950000E-02   0.29650000E-02    1.0000000      -0.16308980E-01
  2191.4600       0.61848800       0.62368028       0.12409963       0.62515221       0.85300000E-03   0.23820000E-02    1.0000000      -0.10969833E-01
  2191.9600       0.61922200       0.62143502       0.12336018       0.62478287      -0.71300000E-03  -0.32260000E-02    1.0000000      -0.46754871E-02
  2192.4600       0.61777500       0.61935003       0.12262073       0.62441354      -0.23730000E-02  -0.73960000E-02    1.0000000      -0.33275995E-02
  2192.9600       0.61684900       0.61742272       0.12188128       0.62404420      -0.81090000E-02   0.25300000E-02    1.0000000      -0.12120993E-02
  2193.4600       0.60966600       0.61565046       0.12114183       0.62367487       0.15700000E-03   0.14493000E-01    1.0000000      -0.12643492E-01
  2193.9600       0.61700600       0.61403067       0.12040238       0.62330553       0.63840000E-02   0.87700000E-03    1.0000000       0.62860287E-02
  2194.4600       0.61605000       0.61256074       0.11966294       0.62293620       0.10340000E-02  -0.83660000E-02    1.0000000       0.73718311E-02
  2194.9600       0.61804000       0.61123805       0.11892349       0.62256686      -0.19820000E-02  -0.45450000E-02    1.0000000       0.14370607E-01
  2195.4600       0.61406800       0.61006001       0.11818404       0.62219752      -0.35110000E-02   0.53180000E-02    1.0000000       0.84677598E-02
  2195.9600       0.61452900       0.60902400       0.11744459       0.62182819       0.33360000E-02   0.76920000E-02    1.0000000       0.11630508E-01
  2196.4600       0.61740400       0.60812743       0.11670514       0.62145885       0.41810000E-02  -0.10700000E-02    1.0000000       0.19598776E-01
  2196.9600       0.61871000       0.60736769       0.11596569       0.62108952       0.22660000E-02  -0.59510000E-02    1.0000000       0.23963109E-01
  2197.4600       0.61967000       0.60674217       0.11522625       0.62072018      -0.17700000E-02  -0.57920000E-02    1.0000000       0.27312867E-01
  2197.9600       0.61694000       0.60624827       0.11448680       0.62035085      -0.35260000E-02   0.97400000E-03    1.0000000       0.22588620E-01
  2198.4600       0.61614400       0.60588338       0.11374735       0.61998151      -0.79600000E-03   0.32950000E-02    1.0000000       0.21677806E-01
  2198.9600       0.61614400       0.60564490       0.11300790       0.61961218      -0.23100000E-03  -0.20150000E-02    1.0000000       0.22181654E-01
  2199.4600       0.61591300       0.60553022       0.11226845       0.61924284      -0.28110000E-02  -0.79400000E-03    1.0000000       0.21935907E-01
  2199.9600       0.61333300       0.60553673       0.11152901       0.61887351      -0.10250000E-02   0.40363333E-02    1.0000000       0.16471330E-01
  2200.4600       0.61488800       0.60566183       0.11078956       0.61850417       0.12253333E-02   0.51500000E-03    1.0000000       0.19492297E-01
  2201.4600       0.61517100       0.60625739       0.10931066       0.61776550      -0.25250000E-03  -0.20266667E-02    1.0000000       0.18831945E-01
  2202.4600       0.61438300       0.60729605       0.10783176       0.61702683      -0.28280000E-02  -0.22950000E-03    1.0000000       0.14972728E-01
  2203.4600       0.60951500       0.60875697       0.10635287       0.61628816      -0.71150000E-03   0.17412500E-02    1.0000000       0.16015099E-02
  2204.4600       0.61296000       0.61061930       0.10487397       0.61554949       0.65450000E-03   0.62725000E-03    1.0000000       0.49452518E-02
  2205.4600       0.61082400       0.61286219       0.10339507       0.61481082       0.54300000E-03   0.12022500E-02    1.0000000      -0.43061298E-02
  2206.4600       0.61404600       0.61546482       0.10191618       0.61407215       0.30590000E-02   0.31775000E-03    1.0000000      -0.29975662E-02
  2207.4600       0.61694200       0.61840633       0.10043728       0.61333348       0.11785000E-02  -0.16395000E-02    1.0000000      -0.30937177E-02
  2208.4600       0.61640300       0.62166588       0.98958385E-01   0.61259480      -0.22000000E-03   0.11732500E-02    1.0000000      -0.11118993E-01
  2209.4600       0.61650200       0.62522264       0.97479488E-01   0.61185613       0.35250000E-02   0.20177500E-02    1.0000000      -0.18424252E-01
  2210.4600       0.62345300       0.62905574       0.96000592E-01   0.61111746       0.38155000E-02  -0.54250000E-04    1.0000000      -0.11837025E-01
  2211.4600       0.62413300       0.63314437       0.94521695E-01   0.61037879       0.34165000E-02   0.13375000E-02    1.0000000      -0.19038489E-01
  2212.4600       0.63028600       0.63746766       0.93042799E-01   0.60964012       0.64905000E-02   0.25002500E-02    1.0000000      -0.15172835E-01
  2213.4600       0.63711400       0.64200479       0.91563902E-01   0.60890145       0.84170000E-02   0.69775000E-03    1.0000000      -0.10332856E-01
  2214.4600       0.64712000       0.64673489       0.90085006E-01   0.60816278       0.78860000E-02  -0.96625000E-03    1.0000000       0.81362008E-03
  2215.4600       0.65288600       0.65163715       0.88606109E-01   0.60742411       0.64845000E-02   0.39900000E-03    1.0000000       0.26384770E-02
  2216.4600       0.66008900       0.65669070       0.87127213E-01   0.60668544       0.86840000E-02   0.13260000E-02    1.0000000       0.71796560E-02
  2217.4600       0.67025400       0.66187471       0.85648316E-01   0.60594677       0.91365000E-02  -0.11512500E-02    1.0000000       0.17703089E-01
  2218.4600       0.67836200       0.66716833       0.84169419E-01   0.60520810       0.63815000E-02  -0.24057500E-02    1.0000000       0.23649073E-01
  2219.4600       0.68301700       0.67255073       0.82690523E-01   0.60446943       0.43250000E-02   0.23300000E-03    1.0000000       0.22112287E-01
  2220.4600       0.68701200       0.67800106       0.81211626E-01   0.60373076       0.68475000E-02   0.19865000E-02    1.0000000       0.19037591E-01
  2221.4600       0.69671200       0.68349847       0.79732730E-01   0.60299208       0.82980000E-02  -0.62250000E-04    1.0000000       0.27916477E-01
  2222.4600       0.70360800       0.68902213       0.78253833E-01   0.60225341       0.67230000E-02  -0.18310000E-02    1.0000000       0.30815852E-01
  2223.4600       0.71015800       0.69455119       0.76774937E-01   0.60151474       0.46360000E-02  -0.17125000E-02    1.0000000       0.32972815E-01
  2224.4600       0.71288000       0.70006480       0.75296040E-01   0.60077607       0.32980000E-02   0.67500000E-04    1.0000000       0.27074913E-01
  2225.4600       0.71675400       0.70554213       0.73817144E-01   0.60003740       0.47710000E-02   0.21075000E-03    1.0000000       0.23687522E-01
  2226.4600       0.72242200       0.71096234       0.72338247E-01   0.59929873       0.37195000E-02  -0.18982500E-02    1.0000000       0.24211043E-01
  2227.4600       0.72419300       0.71630458       0.70859351E-01   0.59856006       0.97450000E-03  -0.20147500E-02    1.0000000       0.16666025E-01
  2228.4600       0.72437100       0.72154800       0.69380454E-01   0.59782139      -0.31000000E-03   0.18297500E-02    1.0000000       0.59642084E-02
  2229.4600       0.72357300       0.72667177       0.67901558E-01   0.59708272       0.46340000E-02   0.29547500E-02    1.0000000      -0.65468240E-02
  2230.4600       0.73363900       0.73165504       0.66422661E-01   0.59634405       0.55995000E-02  -0.10177500E-02    1.0000000       0.41915561E-02
  2231.4600       0.73477200       0.73647697       0.64943765E-01   0.59560538       0.25985000E-02   0.31525000E-03    1.0000000      -0.36021156E-02
  2232.4600       0.73883600       0.74111671       0.63464868E-01   0.59486671       0.62300000E-02   0.24155000E-02    1.0000000      -0.48185055E-02
  2233.4600       0.74723200       0.74555343       0.61985971E-01   0.59412803       0.74295000E-02  -0.12492500E-02    1.0000000       0.35463407E-02
  2234.4600       0.75369500       0.74976628       0.60507075E-01   0.59338936       0.37315000E-02  -0.29642500E-02    1.0000000       0.83002729E-02
  2235.4600       0.75469500       0.75373442       0.59028178E-01   0.59265069       0.15010000E-02   0.32150000E-03    1.0000000       0.20294278E-02
  2236.4600       0.75669700       0.75743701       0.57549282E-01   0.59191202       0.43745000E-02   0.72550000E-03    1.0000000      -0.15634311E-02
  2237.4600       0.76344400       0.76085320       0.56070385E-01   0.59117335       0.29520000E-02  -0.26087500E-02    1.0000000       0.54736384E-02
  2238.4600       0.76260100       0.76396215       0.54591489E-01   0.59043468      -0.84300000E-03  -0.37950000E-02    1.0000000      -0.28757184E-02
