# XDI/1.0 Athena/0.9.26
# Element.edge:                  K
# Element.symbol:                P
# Column.1:                      energy eV
# Column.2:                      xmu
# Column.3:                      bkg
# Column.4:                      pre_edge
# Column.5:                      post_edge
# Column.6:                      der
# Column.7:                      sec
# Column.8:                      i0
# Column.9:                      chi(e)
# Athena.e0:                     2154
# Athena.eshift:                 0.46
# Athena.rbkg:                   1.0
# Athena.importance:             1
# Athena.standard:               None
# Athena.bkg_kweight:            2
# Athena.edge_step:              0.6099542
# Athena.fixed_step:             no
# Athena.pre_edge_range:         -25 -10
# Athena.pre_edge_line:          3.597144 - 0.00158161 * E
# Athena.normalization_range:    28 80
# Athena.post_edge_polynomial:   1.968977 - 0.000542553 * E + 0 * E^2 + 0 * E^3
# Athena.spline_range_energy:    0.000 85.601
# Athena.clamps:                 0 24
# Athena.spline_range_k:         0.000 4.740
# Athena.kweight:                2
# Athena.window:                 hanning
# Athena.phase_correction:       no
# Athena.k_range:                2.740 3.000
# Athena.dk:                     1
# Athena.r_range:                1 3
# Athena.dr:                     0.0
# Athena.window:                 hanning
# Athena.plot_multiplier:        1
# Athena.y_offset:               0
# ///
#------------------------
#   e         xmu        bkg        pre_edge        post_edge        der        sec        i0        chie
  2125.4600       0.24160400       0.24160400       0.23550118       0.81580084      -0.26875000E-02   0.66500000E-04    1.0000000        0.0000000
  2127.4600       0.23622900       0.23622900       0.23233797       0.81471573      -0.25545000E-02   0.65250000E-04    1.0000000        0.0000000
  2129.4600       0.23138600       0.23138600       0.22917476       0.81363063      -0.24265000E-02   0.99875000E-04    1.0000000        0.0000000
  2131.4600       0.22652300       0.22652300       0.22601154       0.81254552      -0.21550000E-02   0.24800000E-03    1.0000000        0.0000000
  2133.4600       0.22276600       0.22276600       0.22284833       0.81146041      -0.14345000E-02  -0.18812500E-04    1.0000000        0.0000000
  2135.4600       0.22078500       0.22078500       0.21968511       0.81037531      -0.22302500E-02  -0.16481250E-03    1.0000000        0.0000000
  2137.4600       0.21384500       0.21384500       0.21652190       0.80929020      -0.20937500E-02   0.24364583E-03    1.0000000        0.0000000
  2139.4600       0.21241000       0.21241000       0.21335869       0.80820509      -0.12556667E-02   0.19125000E-03    1.0000000        0.0000000
  2140.4600       0.21007800       0.21007800       0.21177708       0.80766254      -0.15200000E-02  -0.10341667E-02    1.0000000        0.0000000
  2140.6600       0.21058600       0.21058600       0.21146076       0.80755403      -0.24966667E-02   0.27183333E-01    1.0000000        0.0000000
  2140.7600       0.20932900       0.20932900       0.21130260       0.80749977       0.66350000E-02   0.12058333E-01    1.0000000        0.0000000
  2140.8600       0.21191300       0.21191300       0.21114444       0.80744552      -0.85000000E-04  -0.82625000E-01    1.0000000        0.0000000
  2140.9600       0.20931200       0.20931200       0.21098628       0.80739126      -0.98900000E-02  -0.17825000E-01    1.0000000        0.0000000
  2141.0600       0.20993500       0.20993500       0.21082811       0.80733701      -0.36500000E-02   0.61200000E-01    1.0000000        0.0000000
  2141.1600       0.20858200       0.20858200       0.21066995       0.80728275       0.23500000E-02   0.71500000E-01    1.0000000        0.0000000
  2141.2600       0.21040500       0.21040500       0.21051179       0.80722849       0.10650000E-01   0.11575000E-01    1.0000000        0.0000000
  2141.3600       0.21071200       0.21071200       0.21035363       0.80717424       0.46650000E-02  -0.61725000E-01    1.0000000        0.0000000
  2141.4600       0.21133800       0.21133800       0.21019547       0.80711998      -0.16950000E-02  -0.79200000E-01    1.0000000        0.0000000
  2141.5600       0.21037300       0.21037300       0.21003731       0.80706573      -0.11175000E-01   0.63500000E-02    1.0000000        0.0000000
  2141.6600       0.20910300       0.20910300       0.20987915       0.80701147      -0.42500000E-03   0.20425000E-01    1.0000000        0.0000000
  2141.7600       0.21028800       0.21028800       0.20972099       0.80695722      -0.70900000E-02  -0.45850000E-01    1.0000000        0.0000000
  2141.8600       0.20768500       0.20768500       0.20956283       0.80690296      -0.95950000E-02   0.62600000E-01    1.0000000        0.0000000
  2141.9600       0.20836900       0.20836900       0.20940467       0.80684871       0.54300000E-02   0.70000000E-01    1.0000000        0.0000000
  2142.0600       0.20877100       0.20877100       0.20924651       0.80679445       0.44050000E-02   0.15250000E-02    1.0000000        0.0000000
  2142.1600       0.20925000       0.20925000       0.20908835       0.80674020       0.57350000E-02  -0.12875000E-01    1.0000000        0.0000000
  2142.2600       0.20991800       0.20991800       0.20893019       0.80668594       0.18300000E-02  -0.41875000E-01    1.0000000        0.0000000
  2142.3600       0.20961600       0.20961600       0.20877203       0.80663169      -0.26400000E-02  -0.66825000E-01    1.0000000        0.0000000
  2142.4600       0.20939000       0.20939000       0.20861386       0.80657743      -0.11535000E-01  -0.39650000E-01    1.0000000        0.0000000
  2142.5600       0.20730900       0.20730900       0.20845570       0.80652318      -0.10570000E-01   0.45875000E-01    1.0000000        0.0000000
  2142.6600       0.20727600       0.20727600       0.20829754       0.80646892      -0.23600000E-02   0.61275000E-01    1.0000000        0.0000000
  2142.7600       0.20683700       0.20683700       0.20813938       0.80641466       0.16850000E-02   0.35075000E-01    1.0000000        0.0000000
  2142.8600       0.20761300       0.20761300       0.20798122       0.80636041       0.46550000E-02   0.35750000E-02    1.0000000        0.0000000
  2142.9600       0.20776800       0.20776800       0.20782306       0.80630615       0.24000000E-02   0.21150000E-01    1.0000000        0.0000000
  2143.0600       0.20809300       0.20809300       0.20766490       0.80625190       0.88850000E-02   0.17600000E-01    1.0000000        0.0000000
  2143.1600       0.20954500       0.20954500       0.20750674       0.80619764       0.59200000E-02  -0.92675000E-01    1.0000000        0.0000000
  2143.2600       0.20927700       0.20927700       0.20734858       0.80614339      -0.96500000E-02  -0.83225000E-01    1.0000000        0.0000000
  2143.3600       0.20761500       0.20761500       0.20719042       0.80608913      -0.10725000E-01   0.77475000E-01    1.0000000        0.0000000
  2143.4600       0.20713200       0.20713200       0.20703226       0.80603488       0.58450000E-02   0.49500000E-01    1.0000000        0.0000000
  2143.5600       0.20878400       0.20878400       0.20687410       0.80598062      -0.82500000E-03  -0.95450000E-01    1.0000000        0.0000000
  2143.6600       0.20696700       0.20696700       0.20671594       0.80592637      -0.13245000E-01   0.27600000E-01    1.0000000        0.0000000
  2143.7600       0.20613500       0.20613500       0.20655778       0.80587211       0.46950000E-02   0.14760000        1.0000000        0.0000000
  2143.8600       0.20790600       0.20790600       0.20639961       0.80581786       0.16275000E-01  -0.35250000E-02    1.0000000        0.0000000
  2143.9600       0.20939000       0.20939000       0.20624145       0.80576360       0.39900000E-02  -0.13937500        1.0000000        0.0000000
  2144.0600       0.20870400       0.20870400       0.20608329       0.80570935      -0.11600000E-01  -0.89000000E-02    1.0000000        0.0000000
  2144.1600       0.20707000       0.20707000       0.20592513       0.80565509       0.22100000E-02   0.93250000E-01    1.0000000        0.0000000
  2144.2600       0.20914600       0.20914600       0.20576697       0.80560083       0.70500000E-02  -0.31725000E-01    1.0000000        0.0000000
  2144.3600       0.20848000       0.20848000       0.20560881       0.80554658      -0.41350000E-02  -0.34400000E-01    1.0000000        0.0000000
  2144.4600       0.20831900       0.20831900       0.20545065       0.80549232       0.17000000E-03   0.54175000E-01    1.0000000        0.0000000
  2144.5600       0.20851400       0.20851400       0.20529249       0.80543807       0.67000000E-02   0.46500000E-02    1.0000000        0.0000000
  2144.6600       0.20965900       0.20965900       0.20513433       0.80538381       0.11000000E-02  -0.11875000E-01    1.0000000        0.0000000
  2144.7600       0.20873400       0.20873400       0.20497617       0.80532956       0.43250000E-02  -0.71300000E-01    1.0000000        0.0000000
  2144.8600       0.21052400       0.21052400       0.20481801       0.80527530      -0.13160000E-01  -0.54075000E-01    1.0000000        0.0000000
  2144.9600       0.20610200       0.20610200       0.20465985       0.80522105      -0.64900000E-02   0.10535000        1.0000000        0.0000000
  2145.0600       0.20922600       0.20922600       0.20450169       0.80516679       0.79100000E-02  -0.37000000E-02    1.0000000        0.0000000
  2145.1600       0.20768400       0.20768400       0.20434353       0.80511254      -0.72300000E-02   0.27000000E-02    1.0000000        0.0000000
  2145.2600       0.20778000       0.20778000       0.20418536       0.80505828       0.84500000E-02   0.70350000E-01    1.0000000        0.0000000
  2145.3600       0.20937400       0.20937400       0.20402720       0.80500403       0.68400000E-02  -0.33000000E-02    1.0000000        0.0000000
  2145.4600       0.20914800       0.20914800       0.20386904       0.80494977       0.77900000E-02  -0.11150000E-01    1.0000000        0.0000000
  2145.5600       0.21093200       0.21093200       0.20371088       0.80489552       0.46100000E-02  -0.44250000E-01    1.0000000        0.0000000
  2145.6600       0.21007000       0.21007000       0.20355272       0.80484126      -0.10600000E-02   0.35025000E-01    1.0000000        0.0000000
  2145.7600       0.21072000       0.21072000       0.20339456       0.80478700       0.11615000E-01  -0.14100000E-01    1.0000000        0.0000000
  2145.8600       0.21239300       0.21239300       0.20323640       0.80473275      -0.38800000E-02  -0.77800000E-01    1.0000000        0.0000000
  2145.9600       0.20994400       0.20994400       0.20307824       0.80467849      -0.39450000E-02   0.39425000E-01    1.0000000        0.0000000
  2146.0600       0.21160400       0.21160400       0.20292008       0.80462424       0.40050000E-02   0.20350000E-01    1.0000000        0.0000000
  2146.1600       0.21074500       0.21074500       0.20276192       0.80456998       0.12500000E-03   0.59900000E-01    1.0000000        0.0000000
  2146.2600       0.21162900       0.21162900       0.20260376       0.80451573       0.15985000E-01   0.95125000E-01    1.0000000        0.0000000
  2146.3600       0.21394200       0.21394200       0.20244560       0.80446147       0.19150000E-01  -0.65750000E-01    1.0000000        0.0000000
  2146.4600       0.21545900       0.21545900       0.20228744       0.80440722       0.28350000E-02  -0.72075000E-01    1.0000000        0.0000000
  2146.5600       0.21450900       0.21450900       0.20212928       0.80435296       0.47350000E-02   0.47550000E-01    1.0000000        0.0000000
  2146.6600       0.21640600       0.21640600       0.20197111       0.80429871       0.12345000E-01  -0.25925000E-01    1.0000000        0.0000000
  2146.7600       0.21697800       0.21697800       0.20181295       0.80424445      -0.45000000E-03  -0.43625000E-01    1.0000000        0.0000000
  2146.8600       0.21631600       0.21631600       0.20165479       0.80419020       0.36200000E-02   0.33175000E-01    1.0000000        0.0000000
  2146.9600       0.21770200       0.21770200       0.20149663       0.80413594       0.61850000E-02   0.45575000E-01    1.0000000        0.0000000
  2147.0600       0.21755300       0.21755300       0.20133847       0.80408168       0.12735000E-01   0.75175000E-01    1.0000000        0.0000000
  2147.1600       0.22024900       0.22024900       0.20118031       0.80402743       0.21220000E-01  -0.62500000E-02    1.0000000        0.0000000
  2147.2600       0.22179700       0.22179700       0.20102215       0.80397317       0.11485000E-01  -0.66775000E-01    1.0000000        0.0000000
  2147.3600       0.22254600       0.22254600       0.20086399       0.80391892       0.78650000E-02  -0.49850000E-01    1.0000000        0.0000000
  2147.4600       0.22337000       0.22337000       0.20070583       0.80386466       0.15150000E-02   0.20700000E-01    1.0000000        0.0000000
  2147.5600       0.22284900       0.22284900       0.20054767       0.80381041       0.12005000E-01   0.11740000        1.0000000        0.0000000
  2147.6600       0.22577100       0.22577100       0.20038951       0.80375615       0.24995000E-01   0.42550000E-01    1.0000000        0.0000000
  2147.7600       0.22784800       0.22784800       0.20023135       0.80370190       0.20515000E-01  -0.43575000E-01    1.0000000        0.0000000
  2147.8600       0.22987400       0.22987400       0.20007319       0.80364764       0.16280000E-01  -0.73100000E-01    1.0000000        0.0000000
  2147.9600       0.23110400       0.23110400       0.19991503       0.80359339       0.58950000E-02   0.18725000E-01    1.0000000        0.0000000
  2148.0600       0.23105300       0.23105300       0.19975687       0.80353913       0.20025000E-01   0.94875000E-01    1.0000000        0.0000000
  2148.1600       0.23510900       0.23510900       0.19959870       0.80348488       0.24870000E-01   0.16125000E-01    1.0000000        0.0000000
  2148.2600       0.23602700       0.23602700       0.19944054       0.80343062       0.23250000E-01   0.64600000E-01    1.0000000        0.0000000
  2148.3600       0.23975900       0.23975900       0.19928238       0.80337637       0.37790000E-01   0.13500000E-01    1.0000000        0.0000000
  2148.4600       0.24358500       0.24358500       0.19912422       0.80332211       0.25950000E-01  -0.51925000E-01    1.0000000        0.0000000
  2148.5600       0.24494900       0.24494900       0.19896606       0.80326785       0.27405000E-01   0.47050000E-01    1.0000000        0.0000000
  2148.6600       0.24906600       0.24906600       0.19880790       0.80321360       0.35360000E-01   0.22850000E-01    1.0000000        0.0000000
  2148.7600       0.25202100       0.25202100       0.19864974       0.80315934       0.31975000E-01   0.22700000E-01    1.0000000        0.0000000
  2148.8600       0.25546100       0.25546100       0.19849158       0.80310509       0.39900000E-01   0.10312500        1.0000000        0.0000000
  2148.9600       0.26000100       0.26000100       0.19833342       0.80305083       0.52600000E-01  -0.85500000E-02    1.0000000        0.0000000
  2149.0600       0.26598100       0.26598100       0.19817526       0.80299658       0.38190000E-01  -0.39950000E-01    1.0000000        0.0000000
  2149.1600       0.26763900       0.26763900       0.19801710       0.80294232       0.44610000E-01   0.91175000E-01    1.0000000        0.0000000
  2149.2600       0.27490300       0.27490300       0.19785894       0.80288807       0.56425000E-01   0.64875000E-01    1.0000000        0.0000000
  2149.3600       0.27892400       0.27892400       0.19770078       0.80283381       0.57585000E-01   0.18147500        1.0000000        0.0000000
  2149.4600       0.28642000       0.28642000       0.19754262       0.80277956       0.92720000E-01   0.25530000        1.0000000        0.0000000
  2149.5600       0.29746800       0.29746800       0.19738445       0.80272530       0.10864500       0.11417500        1.0000000        0.0000000
  2149.6600       0.30814900       0.30814900       0.19722629       0.80267105       0.11555500       0.41725000E-01    1.0000000        0.0000000
  2149.7600       0.32057900       0.32057900       0.19706813       0.80261679       0.11699000       0.58025000E-01    1.0000000        0.0000000
  2149.8600       0.33154700       0.33154700       0.19690997       0.80256254       0.12716000       0.26885000        1.0000000        0.0000000
  2149.9600       0.34601100       0.34601100       0.19675181       0.80250828       0.17076000       0.44585000        1.0000000        0.0000000
  2150.0600       0.36569900       0.36569900       0.19659365       0.80245402       0.21633000       0.44730000        1.0000000        0.0000000
  2150.1600       0.38927700       0.38927700       0.19643549       0.80239977       0.26022000       0.53817500        1.0000000        0.0000000
  2150.2600       0.41774300       0.41774300       0.19627733       0.80234551       0.32396500       0.69422500        1.0000000        0.0000000
  2150.3600       0.45407000       0.45407000       0.19611917       0.80229126       0.39906500       0.94277500        1.0000000        0.0000000
  2150.4600       0.49755600       0.49755600       0.19596101       0.80223700       0.51252000       0.99782500        1.0000000        0.0000000
  2150.5600       0.55657400       0.55657400       0.19580285       0.80218275       0.59863000       0.74950000        1.0000000        0.0000000
  2150.6600       0.61728200       0.61728200       0.19564469       0.80212849       0.66242000       0.81500000        1.0000000        0.0000000
  2150.7600       0.68905800       0.68905800       0.19548653       0.80207424       0.76163000        1.0567500        1.0000000        0.0000000
  2150.8600       0.76960800       0.76960800       0.19532837       0.80201998       0.87377000       0.92727500        1.0000000        0.0000000
  2150.9600       0.86381200       0.86381200       0.19517020       0.80196573       0.94708500       0.94635000        1.0000000        0.0000000
  2151.0600       0.95902500       0.95902500       0.19501204       0.80191147        1.0630400        1.8259500        1.0000000        0.0000000
  2151.1600        1.0764200        1.0764200       0.19485388       0.80185722        1.3122750        2.4920500        1.0000000        0.0000000
  2151.2600        1.2214800        1.2214800       0.19469572       0.80180296        1.5614500        2.8738750        1.0000000        0.0000000
  2151.3600        1.3887100        1.3887100       0.19453756       0.80174871        1.8870500        3.9267500        1.0000000        0.0000000
  2151.4600        1.5988900        1.5988900       0.19437940       0.80169445        2.3468000        4.3472500        1.0000000        0.0000000
  2151.5600        1.8580700        1.8580700       0.19422124       0.80164019        2.7565000        3.7917500        1.0000000        0.0000000
  2151.6600        2.1501900        2.1501900       0.19406308       0.80158594        3.1051500        3.3785000        1.0000000        0.0000000
  2151.7600        2.4791000        2.4791000       0.19390492       0.80153168        3.4322000        1.5382500        1.0000000        0.0000000
  2151.8600        2.8366300        2.8366300       0.19374676       0.80147743        3.4128000       -2.2127500        1.0000000        0.0000000
  2151.9600        3.1616600        3.1616600       0.19358860       0.80142317        2.9896500       -4.6707500        1.0000000        0.0000000
  2152.0600        3.4345600        3.4345600       0.19343044       0.80136892        2.4786500       -4.9765000        1.0000000        0.0000000
  2152.1600        3.6573900        3.6573900       0.19327228       0.80131466        1.9943500       -6.1912500        1.0000000        0.0000000
  2152.2600        3.8334300        3.8334300       0.19311412       0.80126041        1.2404000       -6.8500000        1.0000000        0.0000000
  2152.3600        3.9054700        3.9054700       0.19295595       0.80120615       0.62435000       -4.6902500        1.0000000        0.0000000
  2152.4600        3.9583000        3.9583000       0.19279779       0.80115190       0.30235000       -3.7882500        1.0000000        0.0000000
  2152.5600        3.9659400        3.9659400       0.19263963       0.80109764      -0.13330000       -4.2237500        1.0000000        0.0000000
  2152.6600        3.9316400        3.9316400       0.19248147       0.80104339      -0.54240000       -3.8792500        1.0000000        0.0000000
  2152.7600        3.8574600        3.8574600       0.19232331       0.80098913      -0.90915000       -3.0802500        1.0000000        0.0000000
  2152.8600        3.7498100        3.7498100       0.19216515       0.80093487       -1.1584500       -2.8627500        1.0000000        0.0000000
  2152.9600        3.6257700        3.6257700       0.19200699       0.80088062       -1.4817000       -2.8102500        1.0000000        0.0000000
  2153.0600        3.4534700        3.4534700       0.19184883       0.80082636       -1.7205000      -0.33700000        1.0000000        0.0000000
  2153.1600        3.2816700        3.2816700       0.19169067       0.80077211       -1.5491000       0.84375000        1.0000000        0.0000000
  2153.2600        3.1436500        3.1436500       0.19153251       0.80071785       -1.5517500      -0.44675000        1.0000000        0.0000000
  2153.3600        2.9713200        2.9713200       0.19137435       0.80066360       -1.6384500      -0.91000000E-01    1.0000000        0.0000000
  2153.4600        2.8159600        2.8159600       0.19121619       0.80060934       -1.5699500       0.80950000        1.0000000        0.0000000
  2153.5600        2.6573300        2.6573300       0.19105803       0.80055509       -1.4765500       0.90825000        1.0000000        0.0000000
  2153.6600        2.5206500        2.5206500       0.19089987       0.80050083       -1.3883000       0.83550000        1.0000000        0.0000000
  2153.7600        2.3796700        2.3796700       0.19074170       0.80044658       -1.3094500        1.6595000        1.0000000        0.0000000
  2153.8600        2.2587600        2.2587600       0.19058354       0.80039232       -1.0564000        2.1497500        1.0000000        0.0000000
  2153.9600        2.1683900        2.1683900       0.19042538       0.80033807      -0.87950000        1.5267500        1.0000000        0.0000000
  2154.0600        2.0828600       0.89105369       0.19026722       0.80028381      -0.75105000        1.2155000        1.0000000        1.9539275
  2154.1600        2.0181800       0.89912742       0.19010906       0.80022956      -0.63640000       0.70150000        1.0000000        1.8346502
  2154.2600        1.9555800       0.90708565       0.18995090       0.80017530      -0.61075000       0.60025000        1.0000000        1.7189723
  2154.3600        1.8960300       0.91492903       0.18979274       0.80012104      -0.51635000       0.95050000        1.0000000        1.6084830
  2154.4600        1.8523100       0.92265817       0.18963458       0.80006679      -0.42065000       0.76100000        1.0000000        1.5241338
  2154.5600        1.8119000       0.93027371       0.18947642       0.80001253      -0.36415000      -0.75000000E-03    1.0000000        1.4453975
  2154.6600        1.7794800       0.93777630       0.18931826       0.79995828      -0.42080000       0.59750000E-01    1.0000000        1.3799457
  2154.7600        1.7277400       0.94516655       0.18916010       0.79990402      -0.35220000       0.82200000        1.0000000        1.2830036
  2154.8600        1.7090400       0.95244510       0.18900194       0.79984977      -0.25640000       0.55450000        1.0000000        1.2404126
  2154.9600        1.6764600       0.95961258       0.18884378       0.79979551      -0.24130000      -0.16975000        1.0000000        1.1752479
  2155.0600        1.6607800       0.96666963       0.18868562       0.79974126      -0.29035000      -0.39775000        1.0000000        1.1379713
  2155.1600        1.6183900       0.97361689       0.18852745       0.79968700      -0.32085000       0.72500000E-01    1.0000000        1.0570845
  2155.2600        1.5966100       0.98045497       0.18836929       0.79963275      -0.27585000       0.16650000        1.0000000        1.0101661
  2155.3600        1.5632200       0.98718452       0.18821113       0.79957849      -0.28755000      -0.42500000E-02    1.0000000       0.94439136
  2155.4600        1.5391000       0.99380617       0.18805297       0.79952424      -0.27670000      -0.44325000        1.0000000       0.89399144
  2155.5600        1.5078800        1.0003205       0.18789481       0.79946998      -0.37620000      -0.16425000        1.0000000       0.83212715
  2155.6600        1.4638600        1.0067283       0.18773665       0.79941573      -0.30955000       0.68950000        1.0000000       0.74945252
  2155.7600        1.4459700        1.0130300       0.18757849       0.79936147      -0.23830000      -0.14450000        1.0000000       0.70979095
  2155.8600        1.4162000        1.0192264       0.18742033       0.79930721      -0.33845000      -0.31075000        1.0000000       0.65082527
  2155.9600        1.3782800        1.0253180       0.18726217       0.79925296      -0.30045000       0.45450000        1.0000000       0.57866964
  2156.0600        1.3561100        1.0313055       0.18710401       0.79919870      -0.24755000       0.32750000E-01    1.0000000       0.53250630
  2156.1600        1.3287700        1.0371896       0.18694585       0.79914445      -0.29390000      -0.35250000        1.0000000       0.47803655
  2156.2600        1.2973300        1.0429708       0.18678769       0.79909019      -0.31805000       0.13300000        1.0000000       0.41701359
  2156.3600        1.2651600        1.0486498       0.18662953       0.79903594      -0.26730000       0.32925000        1.0000000       0.35496139
  2156.4600        1.2438700        1.0542272       0.18647137       0.79898168      -0.25220000      -0.19750000E-01    1.0000000       0.31091311
  2156.5600        1.2147200        1.0597037       0.18631320       0.79892743      -0.27125000       0.21700000        1.0000000       0.25414412
  2156.6600        1.1896200        1.0650799       0.18615504       0.79887317      -0.20880000       0.31175000        1.0000000       0.20417941
  2156.7600        1.1729600        1.0703564       0.18599688       0.79881892      -0.20890000      -0.21250000E-01    1.0000000       0.16821523
  2156.8600        1.1478400        1.0755339       0.18583872       0.79876466      -0.21305000       0.93500000E-01    1.0000000       0.11854354
  2156.9600        1.1303500        1.0806129       0.18568056       0.79871041      -0.19020000       0.18550000        1.0000000       0.81542318E-01
  2157.0600        1.1098000        1.0855942       0.18552240       0.79865615      -0.17595000       0.29200000        1.0000000       0.39684632E-01
  2157.1600        1.0951600        1.0904783       0.18536424       0.79860189      -0.13180000       0.41950000        1.0000000       0.76754638E-02
  2157.2600        1.0834400        1.0952659       0.18520608       0.79854764      -0.92050000E-01  -0.62500000E-01    1.0000000      -0.19388231E-01
  2157.3600        1.0767500        1.0999577       0.18504792       0.79849338      -0.14430000      -0.60350000        1.0000000      -0.38048214E-01
  2157.4600        1.0545800        1.1045542       0.18488976       0.79843913      -0.21275000       0.17825000        1.0000000      -0.81930997E-01
  2157.5600        1.0342000        1.1090560       0.18473160       0.79838487      -0.10865000       0.65025000        1.0000000      -0.12272402
  2157.6600        1.0328500        1.1134639       0.18457344       0.79833062      -0.82700000E-01  -0.11700000        1.0000000      -0.13216390
  2157.7600        1.0176600        1.1177785       0.18441528       0.79827636      -0.13205000      -0.10905000        1.0000000      -0.16414096
  2157.8600        1.0064400        1.1220003       0.18425712       0.79822211      -0.10451000       0.12780000        1.0000000      -0.18945734
  2157.9600       0.99675800        1.1261300       0.18409896       0.79816785      -0.10649000       0.48400000E-01    1.0000000      -0.21210124
  2158.0600       0.98514200        1.1301683       0.18394079       0.79811360      -0.94830000E-01  -0.15797500        1.0000000      -0.23776595
  2158.1600       0.97779200        1.1341158       0.18378263       0.79805934      -0.13808500      -0.79500000E-01    1.0000000      -0.25628780
  2158.2600       0.95752500        1.1379731       0.18362447       0.79800509      -0.11073000       0.33190000        1.0000000      -0.29583879
  2158.3600       0.95564600        1.1417409       0.18346631       0.79795083      -0.71705000E-01   0.11580000        1.0000000      -0.30509644
  2158.4600       0.94318400        1.1454197       0.18330815       0.79789658      -0.87570000E-01   0.10560000        1.0000000      -0.33155880
  2158.5600       0.93813200        1.1490102       0.18314999       0.79784232      -0.50585000E-01   0.13265000        1.0000000      -0.34572795
  2158.6600       0.93306700        1.1525131       0.18299183       0.79778806      -0.61040000E-01  -0.15945000        1.0000000      -0.35977472
  2158.7600       0.92592400        1.1559290       0.18283367       0.79773381      -0.82475000E-01  -0.19082500        1.0000000      -0.37708563
  2158.8600       0.91657200        1.1592584       0.18267551       0.79767955      -0.99205000E-01   0.31460000        1.0000000      -0.39787650
  2158.9600       0.90608300        1.1625022       0.18251735       0.79762530      -0.19555000E-01   0.44097500        1.0000000      -0.42039084
  2159.0600       0.91266100        1.1656608       0.18235919       0.79757104      -0.11010000E-01  -0.21870000        1.0000000      -0.41478485
  2159.1600       0.90388100        1.1687349       0.18220103       0.79751679      -0.63295000E-01   0.22175000E-01    1.0000000      -0.43421927
  2159.2600       0.90000200        1.1717251       0.18204287       0.79746253      -0.65750000E-02   0.46072500        1.0000000      -0.44548118
  2159.3600       0.90256600        1.1746321       0.18188471       0.79740828       0.28850000E-01   0.12162500        1.0000000      -0.44604357
  2159.4600       0.90577200        1.1774566       0.18172654       0.79735402       0.17750000E-01  -0.80375000E-01    1.0000000      -0.44541801
  2159.5600       0.90611600        1.1801991       0.18156838       0.79729977       0.12775000E-01   0.71700000E-01    1.0000000      -0.44935023
  2159.6600       0.90832700        1.1828602       0.18141022       0.79724551       0.32090000E-01   0.76950000E-01    1.0000000      -0.45008824
  2159.7600       0.91253400        1.1854407       0.18125206       0.79719126       0.28165000E-01  -0.72300000E-01    1.0000000      -0.44742158
  2159.8600       0.91396000        1.1879411       0.18109390       0.79713700       0.17630000E-01   0.29727500        1.0000000      -0.44918302
  2159.9600       0.91606000        1.1903620       0.18093574       0.79708275       0.87620000E-01   0.28170000        1.0000000      -0.44970924
  2160.0600       0.93148400        1.1927042       0.18077758       0.79702849       0.73970000E-01  -0.31835000        1.0000000      -0.42826202
  2160.1600       0.93085400        1.1949682       0.18061942       0.79697423       0.23950000E-01  -0.62300000E-01    1.0000000      -0.43300666
  2160.2600       0.93627400        1.1971547       0.18046126       0.79691998       0.61510000E-01   0.33865000        1.0000000      -0.42770542
  2160.3600       0.94315600        1.1992643       0.18030310       0.79686572       0.91680000E-01   0.32366667E-01    1.0000000      -0.41988121
  2160.4600       0.95461000        1.2012976       0.18014494       0.79681147       0.67983333E-01  -0.32683333E-01    1.0000000      -0.40443632
  2160.9600       0.98394600        1.2103425       0.17935413       0.79654019       0.72070000E-01  -0.51933333E-03    1.0000000      -0.37116959
  2161.4600        1.0266800        1.2175756       0.17856333       0.79626892       0.67464000E-01  -0.20340000E-01    1.0000000      -0.31296710
  2161.9600        1.0514100        1.2230762       0.17777253       0.79599764       0.51730000E-01  -0.17204000E-01    1.0000000      -0.28144107
  2162.4600        1.0784100        1.2269232       0.17698172       0.79572636       0.50260000E-01  -0.20310000E-01    1.0000000      -0.24348262
  2162.9600        1.1016700        1.2291959       0.17619092       0.79545508       0.31420000E-01  -0.37260000E-01    1.0000000      -0.20907463
  2163.4600        1.1098300        1.2299734       0.17540012       0.79518381       0.13000000E-01  -0.76800000E-02    1.0000000      -0.19697110
  2163.9600        1.1146700        1.2293346       0.17460931       0.79491253       0.23740000E-01   0.29000000E-01    1.0000000      -0.18798881
  2164.4600        1.1335700        1.2273587       0.17381851       0.79464125       0.42000000E-01   0.37160000E-01    1.0000000      -0.15376348
  2164.9600        1.1566700        1.2241248       0.17302771       0.79436998       0.60900000E-01   0.27750000E-01    1.0000000      -0.11058992
  2165.4600        1.1944700        1.2197120       0.17223690       0.79409870       0.69750000E-01  -0.62000000E-02    1.0000000      -0.41383424E-01
  2165.9600        1.2264200        1.2141994       0.17144610       0.79382742       0.54700000E-01  -0.18780000E-01    1.0000000       0.20035296E-01
  2166.4600        1.2491700        1.2076661       0.17065530       0.79355615       0.50970000E-01  -0.27500000E-02    1.0000000       0.68044342E-01
  2166.9600        1.2773900        1.2001911       0.16986449       0.79328487       0.51950000E-01  -0.81200000E-02    1.0000000       0.12656503
  2167.4600        1.3011200        1.1918537       0.16907369       0.79301359       0.42850000E-01  -0.20920000E-01    1.0000000       0.17913858
  2167.9600        1.3202400        1.1827328       0.16828288       0.79274232       0.31030000E-01  -0.14880000E-01    1.0000000       0.22543859
  2168.4600        1.3321500        1.1729076       0.16749208       0.79247104       0.27970000E-01  -0.16680000E-01    1.0000000       0.26107277
  2168.9600        1.3482100        1.1624571       0.16670128       0.79219976       0.14350000E-01  -0.42650000E-01    1.0000000       0.30453578
  2169.4600        1.3465000        1.1514605       0.16591047       0.79192849      -0.14680000E-01  -0.43420000E-01    1.0000000       0.31976084
  2169.9600        1.3335300        1.1399969       0.16511967       0.79165721      -0.29070000E-01  -0.21390000E-01    1.0000000       0.31729119
  2170.4600        1.3174300        1.1281453       0.16432887       0.79138593      -0.36070000E-01  -0.15220000E-01    1.0000000       0.31032604
  2170.9600        1.2974600        1.1159849       0.16353806       0.79111466      -0.44290000E-01  -0.16510000E-01    1.0000000       0.29752249
  2171.4600        1.2731400        1.1035947       0.16274726       0.79084338      -0.52580000E-01  -0.12690000E-01    1.0000000       0.27796394
  2171.9600        1.2448800        1.0910539       0.16195646       0.79057210      -0.56980000E-01  -0.10900000E-01    1.0000000       0.25219288
  2172.4600        1.2161600        1.0784415       0.16116565       0.79030083      -0.63480000E-01  -0.63100000E-02    1.0000000       0.22578499
  2172.9600        1.1814000        1.0658366       0.16037485       0.79002955      -0.63290000E-01   0.21700000E-02    1.0000000       0.18946236
  2173.4600        1.1528700        1.0533184       0.15958405       0.78975827      -0.61310000E-01  -0.29000000E-02    1.0000000       0.16321158
  2173.9600        1.1200900        1.0409659       0.15879324       0.78948700      -0.66190000E-01  -0.26200000E-02    1.0000000       0.12972137
  2174.4600        1.0866800        1.0288582       0.15800244       0.78921572      -0.63930000E-01  -0.80000000E-04    1.0000000       0.94796932E-01
  2174.9600        1.0561600        1.0170561       0.15721163       0.78894444      -0.66270000E-01  -0.74000000E-03    1.0000000       0.64109514E-01
  2175.4600        1.0204100        1.0055660       0.15642083       0.78867317      -0.64670000E-01   0.67300000E-02    1.0000000       0.24336297E-01
  2175.9600       0.99149000       0.99438393       0.15563003       0.78840189      -0.59540000E-01   0.14741000E-01    1.0000000      -0.47445116E-02
  2176.4600       0.96087000       0.98350622       0.15483922       0.78813061      -0.49929000E-01   0.12278000E-01    1.0000000      -0.37111339E-01
  2176.9600       0.94156100       0.97292902       0.15404842       0.78785934      -0.47262000E-01  -0.23480000E-02    1.0000000      -0.51426845E-01
  2177.4600       0.91360800       0.96264854       0.15325762       0.78758806      -0.52277000E-01   0.71380000E-02    1.0000000      -0.80400369E-01
  2177.9600       0.88928400       0.95266099       0.15246681       0.78731678      -0.40124000E-01   0.22874000E-01    1.0000000      -0.10390450
  2178.4600       0.87348400       0.94296255       0.15167601       0.78704551      -0.29403000E-01   0.11673000E-01    1.0000000      -0.11390781
  2178.9600       0.85988100       0.93354943       0.15088521       0.78677423      -0.28451000E-01   0.11264000E-01    1.0000000      -0.12077699
  2179.4600       0.84503300       0.92441783       0.15009440       0.78650295      -0.18139000E-01   0.13805000E-01    1.0000000      -0.13014884
  2179.9600       0.84174200       0.91556395       0.14930360       0.78623168      -0.14646000E-01   0.28160000E-02    1.0000000      -0.12102868
  2180.4600       0.83038700       0.90698399       0.14851280       0.78596040      -0.15323000E-01   0.25190000E-02    1.0000000      -0.12557827
  2180.9600       0.82641900       0.89867415       0.14772199       0.78568912      -0.12127000E-01   0.83400000E-03    1.0000000      -0.11845996
  2181.4600       0.81826000       0.89063063       0.14693119       0.78541785      -0.14489000E-01   0.81080000E-02    1.0000000      -0.11864928
  2181.9600       0.81193000       0.88284962       0.14614039       0.78514657      -0.40190000E-02   0.13112000E-01    1.0000000      -0.11627040
  2182.4600       0.81424100       0.87532733       0.14534958       0.78487529      -0.13770000E-02   0.11410000E-02    1.0000000      -0.10014905
  2182.9600       0.81055300       0.86805996       0.14455878       0.78460402      -0.28780000E-02  -0.44770000E-02    1.0000000      -0.94280784E-01
  2183.4600       0.81136300       0.86104371       0.14376797       0.78433274      -0.58540000E-02  -0.76700000E-02    1.0000000      -0.81449896E-01
  2183.9600       0.80469900       0.85427477       0.14297717       0.78406146      -0.10548000E-01   0.52750000E-02    1.0000000      -0.81277856E-01
  2184.4600       0.80081500       0.84774935       0.14218637       0.78379019      -0.57900000E-03   0.12725000E-01    1.0000000      -0.76947334E-01
  2184.9600       0.80412000       0.84146365       0.14139556       0.78351891       0.21770000E-02  -0.23570000E-02    1.0000000      -0.61223689E-01
  2185.4600       0.80299200       0.83541386       0.14060476       0.78324763      -0.29360000E-02  -0.50970000E-02    1.0000000      -0.53154579E-01
  2185.9600       0.80118400       0.82959619       0.13981396       0.78297636      -0.29200000E-02  -0.34080000E-02    1.0000000      -0.46580854E-01
  2186.4600       0.80007200       0.82400683       0.13902315       0.78270508      -0.63440000E-02  -0.89800000E-03    1.0000000      -0.39240376E-01
  2186.9600       0.79484000       0.81864199       0.13823235       0.78243380      -0.38180000E-02   0.27410000E-02    1.0000000      -0.39022590E-01
  2187.4600       0.79625400       0.81349787       0.13744155       0.78216253      -0.36030000E-02  -0.22500000E-03    1.0000000      -0.28270758E-01
  2187.9600       0.79123700       0.80857066       0.13665074       0.78189125      -0.40430000E-02   0.14230000E-02    1.0000000      -0.28417967E-01
  2188.4600       0.79221100       0.80385656       0.13585994       0.78161997      -0.21800000E-02  -0.31330000E-02    1.0000000      -0.19092521E-01
  2188.9600       0.78905700       0.79935178       0.13506914       0.78134869      -0.71760000E-02  -0.41160000E-02    1.0000000      -0.16877960E-01
  2189.4600       0.78503500       0.79505252       0.13427833       0.78107742      -0.62960000E-02   0.19400000E-02    1.0000000      -0.16423392E-01
  2189.9600       0.78276100       0.79095496       0.13348753       0.78080614      -0.52360000E-02   0.87000000E-04    1.0000000      -0.13433738E-01
  2190.4600       0.77979900       0.78705533       0.13269673       0.78053486      -0.62090000E-02   0.29380000E-02    1.0000000      -0.11896510E-01
  2190.9600       0.77655200       0.78334980       0.13190592       0.78026359      -0.22980000E-02   0.35640000E-02    1.0000000      -0.11144774E-01
  2191.4600       0.77750100       0.77983459       0.13111512       0.77999231      -0.26450000E-02   0.11190000E-02    1.0000000      -0.38258447E-02
  2191.9600       0.77390700       0.77650589       0.13032431       0.77972103      -0.11790000E-02   0.20030000E-02    1.0000000      -0.42607978E-02
  2192.4600       0.77632200       0.77335991       0.12953351       0.77944976      -0.64200000E-03  -0.62300000E-03    1.0000000       0.48562567E-02
  2192.9600       0.77326500       0.77039283       0.12874271       0.77917848      -0.18020000E-02  -0.52890000E-02    1.0000000       0.47088245E-02
  2193.4600       0.77452000       0.76760087       0.12795190       0.77890720      -0.59310000E-02  -0.66940000E-02    1.0000000       0.11343685E-01
  2193.9600       0.76733400       0.76498022       0.12716110       0.77863593      -0.84960000E-02   0.62020000E-02    1.0000000       0.38589406E-02
  2194.4600       0.76602400       0.76252709       0.12637030       0.77836465       0.27100000E-03   0.65230000E-02    1.0000000       0.57330764E-02
  2194.9600       0.76760500       0.76023766       0.12557949       0.77809337      -0.19730000E-02  -0.54380000E-02    1.0000000       0.12078513E-01
  2195.4600       0.76405100       0.75810815       0.12478869       0.77782210      -0.51670000E-02   0.14650000E-02    1.0000000       0.97431147E-02
  2195.9600       0.76243800       0.75613474       0.12399789       0.77755082      -0.50800000E-03   0.48470000E-02    1.0000000       0.10333984E-01
  2196.4600       0.76354300       0.75431365       0.12320708       0.77727954      -0.32000000E-03   0.50000000E-03    1.0000000       0.15131217E-01
  2196.9600       0.76211800       0.75264107       0.12241628       0.77700827      -0.80000000E-05  -0.24980000E-02    1.0000000       0.15537119E-01
  2197.4600       0.76353500       0.75111320       0.12162548       0.77673699      -0.28180000E-02  -0.54190000E-02    1.0000000       0.20365140E-01
  2197.9600       0.75930000       0.74972624       0.12083467       0.77646571      -0.54270000E-02   0.35710000E-02    1.0000000       0.15695874E-01
  2198.4600       0.75810800       0.74847638       0.12004387       0.77619444       0.75300000E-03   0.75340000E-02    1.0000000       0.15790719E-01
  2198.9600       0.76005300       0.74735984       0.11925307       0.77592316       0.21070000E-02  -0.13980000E-02    1.0000000       0.20810018E-01
  2199.4600       0.76021500       0.74637281       0.11846226       0.77565188      -0.64500000E-03  -0.48300000E-02    1.0000000       0.22693819E-01
  2199.9600       0.75940800       0.74551149       0.11767146       0.77538061      -0.27230000E-02  -0.21403333E-02    1.0000000       0.22782881E-01
  2200.4600       0.75749200       0.74477207       0.11688065       0.77510933      -0.27853333E-02  -0.19400000E-03    1.0000000       0.20853909E-01
  2201.4600       0.75523000       0.74364377       0.11529905       0.77456678      -0.30140000E-02   0.12841667E-03    1.0000000       0.18995251E-01
  2202.4600       0.75146400       0.74295749       0.11371744       0.77402422      -0.25285000E-02   0.12362500E-02    1.0000000       0.13946138E-01
  2203.4600       0.75017300       0.74268285       0.11213583       0.77348167      -0.54150000E-03   0.15030000E-02    1.0000000       0.12279852E-01
  2204.4600       0.75038100       0.74278944       0.11055423       0.77293912       0.47750000E-03  -0.59150000E-03    1.0000000       0.12446116E-01
  2205.4600       0.75112800       0.74324685       0.10897262       0.77239656      -0.17245000E-02  -0.45575000E-03    1.0000000       0.12920884E-01
  2206.4600       0.74693200       0.74402469       0.10739101       0.77185401      -0.43400000E-03   0.15380000E-02    1.0000000       0.47664402E-02
  2207.4600       0.75026000       0.74509255       0.10580941       0.77131146       0.13515000E-02   0.18975000E-03    1.0000000       0.84718664E-02
  2208.4600       0.74963500       0.74642003       0.10422780       0.77076890      -0.54500000E-04  -0.62050000E-03    1.0000000       0.52708390E-02
  2209.4600       0.75015100       0.74797673       0.10264619       0.77022635       0.11050000E-03   0.12215000E-02    1.0000000       0.35646478E-02
  2210.4600       0.74985600       0.74973224       0.10106458       0.76968380       0.23885000E-02   0.22510000E-02    1.0000000       0.20289546E-03
  2211.4600       0.75492800       0.75165617       0.99482977E-01   0.76914124       0.46125000E-02  -0.83650000E-03    1.0000000       0.53640544E-02
  2212.4600       0.75908100       0.75371811       0.97901370E-01   0.76859869       0.71550000E-03  -0.19422500E-02    1.0000000       0.87922760E-02
  2213.4600       0.75635900       0.75588767       0.96319763E-01   0.76805614       0.72800000E-03   0.13270000E-02    1.0000000       0.77273561E-03
  2214.4600       0.76053700       0.75813443       0.94738156E-01   0.76751358       0.33695000E-02   0.10912500E-02    1.0000000       0.39389392E-02
  2215.4600       0.76309800       0.76042799       0.93156549E-01   0.76697103       0.29105000E-02   0.75250000E-04    1.0000000       0.43773862E-02
  2216.4600       0.76635800       0.76273797       0.91574942E-01   0.76642847       0.35200000E-02   0.29175000E-03    1.0000000       0.59349263E-02
  2217.4600       0.77013800       0.76503394       0.89993335E-01   0.76588592       0.34940000E-02  -0.71900000E-03    1.0000000       0.83679377E-02
  2218.4600       0.77334600       0.76728552       0.88411727E-01   0.76534337       0.20820000E-02  -0.12850000E-02    1.0000000       0.99359652E-02
  2219.4600       0.77430200       0.76946229       0.86830120E-01   0.76480081       0.92400000E-03  -0.68550000E-03    1.0000000       0.79345468E-02
  2220.4600       0.77519400       0.77153386       0.85248513E-01   0.76425826       0.71100000E-03   0.10877500E-02    1.0000000       0.60006799E-02
  2221.4600       0.77572400       0.77346982       0.83666906E-01   0.76371571       0.30995000E-02  -0.24075000E-03    1.0000000       0.36956464E-02
  2222.4600       0.78139300       0.77523978       0.82085299E-01   0.76317315       0.22950000E-03  -0.20250000E-02    1.0000000       0.10087999E-01
  2223.4600       0.77618300       0.77681333       0.80503692E-01   0.76263060      -0.95050000E-03   0.34000000E-03    1.0000000      -0.10334064E-02
  2224.4600       0.77949200       0.77816007       0.78922085E-01   0.76208805       0.90950000E-03   0.45975000E-03    1.0000000       0.21836601E-02
  2225.4600       0.77800200       0.77924959       0.77340478E-01   0.76154549      -0.31000000E-04  -0.12642500E-02    1.0000000      -0.20453845E-02
  2226.4600       0.77943000       0.78005150       0.75758871E-01   0.76100294      -0.16190000E-02  -0.24337500E-02    1.0000000      -0.10189274E-02
  2227.4600       0.77476400       0.78053539       0.74177264E-01   0.76046039      -0.48985000E-02  -0.23350000E-03    1.0000000      -0.94620055E-02
  2228.4600       0.76963300       0.78067086       0.72595657E-01   0.75991783      -0.20860000E-02   0.36170000E-02    1.0000000      -0.18096214E-01
  2229.4600       0.77059200       0.78042751       0.71014050E-01   0.75937528       0.23355000E-02   0.38225000E-03    1.0000000      -0.16125001E-01
  2230.4600       0.77430400       0.77977494       0.69432443E-01   0.75883273      -0.13215000E-02  -0.32367500E-02    1.0000000      -0.89694265E-02
  2231.4600       0.76794900       0.77868274       0.67850836E-01   0.75829017      -0.41380000E-02   0.36650000E-03    1.0000000      -0.17597619E-01
  2232.4600       0.76602800       0.77712052       0.66269229E-01   0.75774762      -0.58850000E-03   0.68425000E-03    1.0000000      -0.18185818E-01
  2233.4600       0.76677200       0.77505786       0.64687621E-01   0.75720507      -0.27695000E-02  -0.21942500E-02    1.0000000      -0.13584400E-01
  2234.4600       0.76048900       0.77246438       0.63106014E-01   0.75666251      -0.49770000E-02   0.66825000E-03    1.0000000      -0.19633239E-01
  2235.4600       0.75681800       0.76930966       0.61524407E-01   0.75611996      -0.14330000E-02   0.17897500E-02    1.0000000      -0.20479665E-01
  2236.4600       0.75762300       0.76556330       0.59942800E-01   0.75557741      -0.13975000E-02  -0.37450000E-03    1.0000000      -0.13017869E-01
  2237.4600       0.75402300       0.76119491       0.58361193E-01   0.75503485      -0.21820000E-02   0.31675000E-03    1.0000000      -0.11758117E-01
  2238.4600       0.75325900       0.75617408       0.56779586E-01   0.75449230      -0.76400000E-03   0.14180000E-02    1.0000000      -0.47791837E-02
