# XDI/1.0 Athena/0.9.26
# Element.edge:                  K
# Element.symbol:                P
# Column.1:                      energy eV
# Column.2:                      xmu
# Column.3:                      bkg
# Column.4:                      pre_edge
# Column.5:                      post_edge
# Column.6:                      der
# Column.7:                      sec
# Column.8:                      i0
# Column.9:                      chi(e)
# Athena.e0:                     2154
# Athena.eshift:                 0.49
# Athena.rbkg:                   1.0
# Athena.importance:             1
# Athena.standard:               None
# Athena.bkg_kweight:            2
# Athena.edge_step:              0.3781187
# Athena.fixed_step:             no
# Athena.pre_edge_range:         -20.400 -7.000
# Athena.pre_edge_line:          -0.720400 + 0.000384368 * E
# Athena.normalization_range:    28.000 67.600
# Athena.post_edge_polynomial:   -0.095264 + 0.000269689 * E + 0 * E^2 + 0 * E^3
# Athena.spline_range_energy:    0.000 85.601
# Athena.clamps:                 0 24
# Athena.spline_range_k:         0.000 4.740
# Athena.kweight:                2
# Athena.window:                 hanning
# Athena.phase_correction:       no
# Athena.k_range:                2.740 3.000
# Athena.dk:                     1
# Athena.r_range:                1 3
# Athena.dr:                     0.0
# Athena.window:                 hanning
# Athena.plot_multiplier:        1
# Athena.y_offset:               0
# ///
#------------------------
#   e         xmu        bkg        pre_edge        post_edge        der        sec        i0        chie
  2125.4900       0.10331300       0.10331300       0.96569199E-01   0.47795742       0.18885000E-02  -0.60462500E-03    1.0000000        0.0000000
  2127.4900       0.10709000       0.10709000       0.97337935E-01   0.47849680       0.67925000E-03  -0.51237500E-03    1.0000000        0.0000000
  2129.4900       0.10603000       0.10603000       0.98106670E-01   0.47903618      -0.16100000E-03  -0.13625000E-04    1.0000000        0.0000000
  2131.4900       0.10644600       0.10644600       0.98875405E-01   0.47957556       0.62475000E-03   0.19650000E-03    1.0000000        0.0000000
  2133.4900       0.10852900       0.10852900       0.99644141E-01   0.48011493       0.62500000E-03  -0.39506250E-03    1.0000000        0.0000000
  2135.4900       0.10894600       0.10894600       0.10041288       0.48065431      -0.95550000E-03  -0.53656250E-03    1.0000000        0.0000000
  2137.4900       0.10470700       0.10470700       0.10118161       0.48119369      -0.15212500E-02   0.12958333E-04    1.0000000        0.0000000
  2139.4900       0.10286100       0.10286100       0.10195035       0.48173307      -0.90366667E-03   0.38901515E-04    1.0000000        0.0000000
  2140.4900       0.10199600       0.10199600       0.10233471       0.48200276      -0.14045455E-02  -0.97848485E-03    1.0000000        0.0000000
  2140.5900       0.10131600       0.10131600       0.10237315       0.48202973      -0.19800000E-02  -0.53272727E-02    1.0000000        0.0000000
  2140.6900       0.10160000       0.10160000       0.10241159       0.48205670      -0.24700000E-02  -0.11050000E-01    1.0000000        0.0000000
  2140.7900       0.10082200       0.10082200       0.10245002       0.48208367      -0.41900000E-02  -0.35750000E-02    1.0000000        0.0000000
  2140.8900       0.10076200       0.10076200       0.10248846       0.48211063      -0.31850000E-02   0.30500000E-01    1.0000000        0.0000000
  2140.9900       0.10018500       0.10018500       0.10252690       0.48213760       0.19100000E-02   0.39325000E-01    1.0000000        0.0000000
  2141.0900       0.10114400       0.10114400       0.10256534       0.48216457       0.46800000E-02  -0.22525000E-01    1.0000000        0.0000000
  2141.1900       0.10112100       0.10112100       0.10260377       0.48219154      -0.25950000E-02  -0.22000000E-01    1.0000000        0.0000000
  2141.2900       0.10062500       0.10062500       0.10264221       0.48221851       0.28000000E-03   0.19675000E-01    1.0000000        0.0000000
  2141.3900       0.10117700       0.10117700       0.10268065       0.48224548       0.13400000E-02   0.17100000E-01    1.0000000        0.0000000
  2141.4900       0.10089300       0.10089300       0.10271908       0.48227245       0.37000000E-02   0.14775000E-01    1.0000000        0.0000000
  2141.5900       0.10191700       0.10191700       0.10275752       0.48229942       0.42950000E-02  -0.12275000E-01    1.0000000        0.0000000
  2141.6900       0.10175200       0.10175200       0.10279596       0.48232639       0.12450000E-02  -0.32425000E-01    1.0000000        0.0000000
  2141.7900       0.10216600       0.10216600       0.10283439       0.48235335      -0.21900000E-02  -0.95500000E-02    1.0000000        0.0000000
  2141.8900       0.10131400       0.10131400       0.10287283       0.48238032      -0.66500000E-03   0.28875000E-01    1.0000000        0.0000000
  2141.9900       0.10203300       0.10203300       0.10291127       0.48240729       0.35850000E-02   0.40500000E-02    1.0000000        0.0000000
  2142.0900       0.10203100       0.10203100       0.10294970       0.48243426       0.14500000E-03  -0.27775000E-01    1.0000000        0.0000000
  2142.1900       0.10206200       0.10206200       0.10298814       0.48246123      -0.19700000E-02   0.11275000E-01    1.0000000        0.0000000
  2142.2900       0.10163700       0.10163700       0.10302658       0.48248820       0.24000000E-02   0.30600000E-01    1.0000000        0.0000000
  2142.3900       0.10254200       0.10254200       0.10306501       0.48251517       0.41500000E-02  -0.19675000E-01    1.0000000        0.0000000
  2142.4900       0.10246700       0.10246700       0.10310345       0.48254214      -0.15350000E-02  -0.28850000E-01    1.0000000        0.0000000
  2142.5900       0.10223500       0.10223500       0.10314189       0.48256911      -0.16200000E-02   0.21525000E-01    1.0000000        0.0000000
  2142.6900       0.10214300       0.10214300       0.10318032       0.48259608       0.27700000E-02   0.19750000E-02    1.0000000        0.0000000
  2142.7900       0.10278900       0.10278900       0.10321876       0.48262304      -0.12250000E-02  -0.20275000E-01    1.0000000        0.0000000
  2142.8900       0.10189800       0.10189800       0.10325720       0.48265001      -0.12850000E-02  -0.13000000E-01    1.0000000        0.0000000
  2142.9900       0.10253200       0.10253200       0.10329563       0.48267698      -0.38250000E-02  -0.82750000E-02    1.0000000        0.0000000
  2143.0900       0.10113300       0.10113300       0.10333407       0.48270395      -0.29400000E-02   0.25100000E-01    1.0000000        0.0000000
  2143.1900       0.10194400       0.10194400       0.10337251       0.48273092       0.11950000E-02   0.18500000E-01    1.0000000        0.0000000
  2143.2900       0.10137200       0.10137200       0.10341094       0.48275789       0.76000000E-03   0.17750000E-02    1.0000000        0.0000000
  2143.3900       0.10209600       0.10209600       0.10344938       0.48278486       0.15500000E-02  -0.44775000E-01    1.0000000        0.0000000
  2143.4900       0.10168200       0.10168200       0.10348782       0.48281183      -0.81950000E-02  -0.29025000E-01    1.0000000        0.0000000
  2143.5900       0.10045700       0.10045700       0.10352625       0.48283880      -0.42550000E-02   0.79325000E-01    1.0000000        0.0000000
  2143.6900       0.10083100       0.10083100       0.10356469       0.48286576       0.76700000E-02   0.45900000E-01    1.0000000        0.0000000
  2143.7900       0.10199100       0.10199100       0.10360313       0.48289273       0.49250000E-02  -0.46775000E-01    1.0000000        0.0000000
  2143.8900       0.10181600       0.10181600       0.10364156       0.48291970      -0.16850000E-02  -0.23950000E-01    1.0000000        0.0000000
  2143.9900       0.10165400       0.10165400       0.10368000       0.48294667       0.13500000E-03   0.15475000E-01    1.0000000        0.0000000
  2144.0900       0.10184300       0.10184300       0.10371844       0.48297364       0.14100000E-02   0.72750000E-02    1.0000000        0.0000000
  2144.1900       0.10193600       0.10193600       0.10375687       0.48300061       0.15900000E-02  -0.61250000E-02    1.0000000        0.0000000
  2144.2900       0.10216100       0.10216100       0.10379531       0.48302758       0.18500000E-03  -0.13475000E-01    1.0000000        0.0000000
  2144.3900       0.10197300       0.10197300       0.10383375       0.48305455      -0.11050000E-02   0.26500000E-02    1.0000000        0.0000000
  2144.4900       0.10194000       0.10194000       0.10387219       0.48308152       0.71500000E-03   0.22225000E-01    1.0000000        0.0000000
  2144.5900       0.10211600       0.10211600       0.10391062       0.48310848       0.33400000E-02   0.21650000E-01    1.0000000        0.0000000
  2144.6900       0.10260800       0.10260800       0.10394906       0.48313545       0.50450000E-02  -0.19975000E-01    1.0000000        0.0000000
  2144.7900       0.10312500       0.10312500       0.10398750       0.48316242      -0.65500000E-03  -0.47800000E-01    1.0000000        0.0000000
  2144.8900       0.10247700       0.10247700       0.10402593       0.48318939      -0.45150000E-02   0.92500000E-03    1.0000000        0.0000000
  2144.9900       0.10222200       0.10222200       0.10406437       0.48321636      -0.47000000E-03   0.43650000E-01    1.0000000        0.0000000
  2145.0900       0.10238300       0.10238300       0.10410281       0.48324333       0.42150000E-02   0.23000000E-01    1.0000000        0.0000000
  2145.1900       0.10306500       0.10306500       0.10414124       0.48327030       0.41300000E-02  -0.72250000E-02    1.0000000        0.0000000
  2145.2900       0.10320900       0.10320900       0.10417968       0.48329727       0.27700000E-02   0.10075000E-01    1.0000000        0.0000000
  2145.3900       0.10361900       0.10361900       0.10421812       0.48332424       0.61450000E-02   0.27025000E-01    1.0000000        0.0000000
  2145.4900       0.10443800       0.10443800       0.10425655       0.48335120       0.81750000E-02  -0.15200000E-01    1.0000000        0.0000000
  2145.5900       0.10525400       0.10525400       0.10429499       0.48337817       0.31050000E-02  -0.44750000E-01    1.0000000        0.0000000
  2145.6900       0.10505900       0.10505900       0.10433343       0.48340514      -0.77500000E-03  -0.26250000E-02    1.0000000        0.0000000
  2145.7900       0.10509900       0.10509900       0.10437186       0.48343211       0.25800000E-02   0.14575000E-01    1.0000000        0.0000000
  2145.8900       0.10557500       0.10557500       0.10441030       0.48345908       0.21400000E-02   0.32000000E-02    1.0000000        0.0000000
  2145.9900       0.10552700       0.10552700       0.10444874       0.48348605       0.32200000E-02   0.88750000E-02    1.0000000        0.0000000
  2146.0900       0.10621900       0.10621900       0.10448717       0.48351302       0.39150000E-02   0.42000000E-02    1.0000000        0.0000000
  2146.1900       0.10631000       0.10631000       0.10452561       0.48353999       0.40600000E-02   0.26300000E-01    1.0000000        0.0000000
  2146.2900       0.10703100       0.10703100       0.10456405       0.48356696       0.91750000E-02   0.35525000E-01    1.0000000        0.0000000
  2146.3900       0.10814500       0.10814500       0.10460248       0.48359393       0.11165000E-01   0.28250000E-02    1.0000000        0.0000000
  2146.4900       0.10926400       0.10926400       0.10464092       0.48362089       0.97400000E-02  -0.29525000E-01    1.0000000        0.0000000
  2146.5900       0.11009300       0.11009300       0.10467936       0.48364786       0.52600000E-02  -0.43125000E-01    1.0000000        0.0000000
  2146.6900       0.11031600       0.11031600       0.10471779       0.48367483       0.11150000E-02   0.82500000E-02    1.0000000        0.0000000
  2146.7900       0.11031600       0.11031600       0.10475623       0.48370180       0.69100000E-02   0.24725000E-01    1.0000000        0.0000000
  2146.8900       0.11169800       0.11169800       0.10479467       0.48372877       0.60600000E-02  -0.62500000E-02    1.0000000        0.0000000
  2146.9900       0.11152800       0.11152800       0.10483310       0.48375574       0.56600000E-02   0.21875000E-01    1.0000000        0.0000000
  2147.0900       0.11283000       0.11283000       0.10487154       0.48378271       0.10435000E-01   0.46775000E-01    1.0000000        0.0000000
  2147.1900       0.11361500       0.11361500       0.10490998       0.48380968       0.15015000E-01   0.47500000E-03    1.0000000        0.0000000
  2147.2900       0.11583300       0.11583300       0.10494841       0.48383665       0.10530000E-01  -0.55700000E-01    1.0000000        0.0000000
  2147.3900       0.11572100       0.11572100       0.10498685       0.48386361       0.38750000E-02   0.12500000E-01    1.0000000        0.0000000
  2147.4900       0.11660800       0.11660800       0.10502529       0.48389058       0.13030000E-01   0.44900000E-01    1.0000000        0.0000000
  2147.5900       0.11832700       0.11832700       0.10506373       0.48391755       0.12855000E-01  -0.34225000E-01    1.0000000        0.0000000
  2147.6900       0.11917900       0.11917900       0.10510216       0.48394452       0.61850000E-02  -0.22725000E-01    1.0000000        0.0000000
  2147.7900       0.11956400       0.11956400       0.10514060       0.48397149       0.83100000E-02   0.48200000E-01    1.0000000        0.0000000
  2147.8900       0.12084100       0.12084100       0.10517904       0.48399846       0.15825000E-01   0.23375000E-01    1.0000000        0.0000000
  2147.9900       0.12272900       0.12272900       0.10521747       0.48402543       0.12985000E-01  -0.14625000E-01    1.0000000        0.0000000
  2148.0900       0.12343800       0.12343800       0.10525591       0.48405240       0.12900000E-01   0.39950000E-01    1.0000000        0.0000000
  2148.1900       0.12530900       0.12530900       0.10529435       0.48407937       0.20975000E-01   0.12775000E-01    1.0000000        0.0000000
  2148.2900       0.12763300       0.12763300       0.10533278       0.48410633       0.15455000E-01  -0.39600000E-01    1.0000000        0.0000000
  2148.3900       0.12840000       0.12840000       0.10537122       0.48413330       0.13055000E-01  -0.30250000E-02    1.0000000        0.0000000
  2148.4900       0.13024400       0.13024400       0.10540966       0.48416027       0.14850000E-01   0.60675000E-01    1.0000000        0.0000000
  2148.5900       0.13137000       0.13137000       0.10544809       0.48418724       0.25190000E-01   0.73375000E-01    1.0000000        0.0000000
  2148.6900       0.13528200       0.13528200       0.10548653       0.48421421       0.29525000E-01  -0.34850000E-01    1.0000000        0.0000000
  2148.7900       0.13727500       0.13727500       0.10552497       0.48424118       0.18220000E-01   0.22575000E-01    1.0000000        0.0000000
  2148.8900       0.13892600       0.13892600       0.10556340       0.48426815       0.34040000E-01   0.78950000E-01    1.0000000        0.0000000
  2148.9900       0.14408300       0.14408300       0.10560184       0.48429512       0.34010000E-01  -0.15050000E-01    1.0000000        0.0000000
  2149.0900       0.14572800       0.14572800       0.10564028       0.48432209       0.31030000E-01   0.50125000E-01    1.0000000        0.0000000
  2149.1900       0.15028900       0.15028900       0.10567871       0.48434905       0.44035000E-01   0.82075000E-01    1.0000000        0.0000000
  2149.2900       0.15453500       0.15453500       0.10571715       0.48437602       0.47445000E-01   0.74300000E-01    1.0000000        0.0000000
  2149.3900       0.15977800       0.15977800       0.10575559       0.48440299       0.58895000E-01   0.44300000E-01    1.0000000        0.0000000
  2149.4900       0.16631400       0.16631400       0.10579402       0.48442996       0.56305000E-01  -0.54500000E-02    1.0000000        0.0000000
  2149.5900       0.17103900       0.17103900       0.10583246       0.48445693       0.57805000E-01   0.71050000E-01    1.0000000        0.0000000
  2149.6900       0.17787500       0.17787500       0.10587090       0.48448390       0.70515000E-01   0.12832500        1.0000000        0.0000000
  2149.7900       0.18514200       0.18514200       0.10590933       0.48451087       0.83470000E-01   0.18375000        1.0000000        0.0000000
  2149.8900       0.19456900       0.19456900       0.10594777       0.48453784       0.10726500       0.24130000        1.0000000        0.0000000
  2149.9900       0.20659500       0.20659500       0.10598621       0.48456481       0.13173000       0.21992500        1.0000000        0.0000000
  2150.0900       0.22091500       0.22091500       0.10602464       0.48459178       0.15125000       0.20647500        1.0000000        0.0000000
  2150.1900       0.23684500       0.23684500       0.10606308       0.48461874       0.17302500       0.36607500        1.0000000        0.0000000
  2150.2900       0.25552000       0.25552000       0.10610152       0.48464571       0.22446500       0.57335000        1.0000000        0.0000000
  2150.3900       0.28173800       0.28173800       0.10613995       0.48467268       0.28769500       0.67172500        1.0000000        0.0000000
  2150.4900       0.31305900       0.31305900       0.10617839       0.48469965       0.35881000       0.85837500        1.0000000        0.0000000
  2150.5900       0.35350000       0.35350000       0.10621683       0.48472662       0.45937000        1.1252250        1.0000000        0.0000000
  2150.6900       0.40493300       0.40493300       0.10625526       0.48475359       0.58385500        1.1727000        1.0000000        0.0000000
  2150.7900       0.47027100       0.47027100       0.10629370       0.48478056       0.69391000       0.99782500        1.0000000        0.0000000
  2150.8900       0.54371500       0.54371500       0.10633214       0.48480753       0.78342000       0.85335000        1.0000000        0.0000000
  2150.9900       0.62695500       0.62695500       0.10637058       0.48483450       0.86458000       0.52505000        1.0000000        0.0000000
  2151.0900       0.71663100       0.71663100       0.10640901       0.48486146       0.88843000       0.19405000        1.0000000        0.0000000
  2151.1900       0.80464100       0.80464100       0.10644745       0.48488843       0.90339000       0.56207500        1.0000000        0.0000000
  2151.2900       0.89730900       0.89730900       0.10648589       0.48491540        1.0008450        1.5498250        1.0000000        0.0000000
  2151.3900        1.0048100        1.0048100       0.10652432       0.48494237        1.2133550        2.4090250        1.0000000        0.0000000
  2151.4900        1.1399800        1.1399800       0.10656276       0.48496934        1.4826500        2.9482250        1.0000000        0.0000000
  2151.5900        1.3013400        1.3013400       0.10660120       0.48499631        1.8030000        2.3532500        1.0000000        0.0000000
  2151.6900        1.5005800        1.5005800       0.10663963       0.48502328        1.9533000       0.64250000E-01    1.0000000        0.0000000
  2151.7900        1.6920000        1.6920000       0.10667807       0.48505025        1.8158500       -1.9992500        1.0000000        0.0000000
  2151.8900        1.8637500        1.8637500       0.10671651       0.48507722        1.5534500       -3.1055000        1.0000000        0.0000000
  2151.9900        2.0026900        2.0026900       0.10675494       0.48510418        1.1947500       -4.1335000        1.0000000        0.0000000
  2152.0900        2.1027000        2.1027000       0.10679338       0.48513115       0.72675000       -4.3325000        1.0000000        0.0000000
  2152.1900        2.1480400        2.1480400       0.10683182       0.48515812       0.32825000       -3.3287500        1.0000000        0.0000000
  2152.2900        2.1683500        2.1683500       0.10687025       0.48518509       0.61000000E-01   -2.4757500        1.0000000        0.0000000
  2152.3900        2.1602400        2.1602400       0.10690869       0.48521206      -0.16690000       -2.0177500        1.0000000        0.0000000
  2152.4900        2.1349700        2.1349700       0.10694713       0.48523903      -0.34255000       -1.7865000        1.0000000        0.0000000
  2152.5900        2.0917300        2.0917300       0.10698556       0.48526600      -0.52420000       -1.6390000        1.0000000        0.0000000
  2152.6900        2.0301300        2.0301300       0.10702400       0.48529297      -0.67035000      -0.85275000        1.0000000        0.0000000
  2152.7900        1.9576600        1.9576600       0.10706244       0.48531994      -0.69475000      -0.18250000        1.0000000        0.0000000
  2152.8900        1.8911800        1.8911800       0.10710087       0.48534690      -0.70685000      -0.56875000        1.0000000        0.0000000
  2152.9900        1.8162900        1.8162900       0.10713931       0.48537387      -0.80850000      -0.44450000        1.0000000        0.0000000
  2153.0900        1.7294800        1.7294800       0.10717775       0.48540084      -0.79575000       0.16500000        1.0000000        0.0000000
  2153.1900        1.6571400        1.6571400       0.10721618       0.48542781      -0.77550000       0.16025000        1.0000000        0.0000000
  2153.2900        1.5743800        1.5743800       0.10725462       0.48545478      -0.76370000       0.44075000        1.0000000        0.0000000
  2153.3900        1.5044000        1.5044000       0.10729306       0.48548175      -0.68735000       0.81650000        1.0000000        0.0000000
  2153.4900        1.4369100        1.4369100       0.10733149       0.48550872      -0.60040000       0.88050000        1.0000000        0.0000000
  2153.5900        1.3843200        1.3843200       0.10736993       0.48553569      -0.51125000       0.57400000        1.0000000        0.0000000
  2153.6900        1.3346600        1.3346600       0.10740837       0.48556266      -0.48560000       0.71700000        1.0000000        0.0000000
  2153.7900        1.2872000        1.2872000       0.10744680       0.48558963      -0.36785000        1.1832500        1.0000000        0.0000000
  2153.8900        1.2610900        1.2610900       0.10748524       0.48561659      -0.24895000       0.83075000        1.0000000        0.0000000
  2153.9900        1.2374100        1.2374100       0.10752368       0.48564356      -0.20170000       0.46125000        1.0000000        0.0000000
  2154.0900        1.2207500       0.65446243       0.10756211       0.48567053      -0.15670000       0.48300000        1.0000000        1.4976450
  2154.1900        1.2060700       0.65764308       0.10760055       0.48569750      -0.10510000       0.50500000        1.0000000        1.4504094
  2154.2900        1.1997300       0.66077267       0.10763899       0.48572447      -0.55700000E-01   0.36800000        1.0000000        1.4253654
  2154.3900        1.1949300       0.66385149       0.10767743       0.48575144      -0.31500000E-01   0.33275000        1.0000000        1.4045285
  2154.4900        1.1934300       0.66687982       0.10771586       0.48577841       0.10850000E-01   0.34925000        1.0000000        1.3925526
  2154.5900        1.1971000       0.66985794       0.10775430       0.48580538       0.38350000E-01   0.14350000        1.0000000        1.3943824
  2154.6900        1.2011000       0.67278614       0.10779274       0.48583235       0.39550000E-01  -0.26725000        1.0000000        1.3972170
  2154.7900        1.2050100       0.67566469       0.10783117       0.48585931      -0.15100000E-01  -0.60775000        1.0000000        1.3999448
  2154.8900        1.1980800       0.67849388       0.10786961       0.48588628      -0.82000000E-01  -0.25725000        1.0000000        1.3741349
  2154.9900        1.1886100       0.68127399       0.10790805       0.48591325      -0.66550000E-01   0.13950000        1.0000000        1.3417374
  2155.0900        1.1847700       0.68400529       0.10794648       0.48594022      -0.54100000E-01  -0.31625000        1.0000000        1.3243585
  2155.1900        1.1777900       0.68668809       0.10798492       0.48596719      -0.12980000      -0.69000000        1.0000000        1.2988036
  2155.2900        1.1588100       0.68932264       0.10802336       0.48599416      -0.19210000      -0.35325000        1.0000000        1.2416402
  2155.3900        1.1393700       0.69190924       0.10806179       0.48602113      -0.20045000      -0.14650000        1.0000000        1.1833870
  2155.4900        1.1187200       0.69444817       0.10810023       0.48604810      -0.22140000      -0.17050000        1.0000000        1.1220599
  2155.5900        1.0950900       0.69693971       0.10813867       0.48607507      -0.23455000      -0.27100000        1.0000000        1.0529770
  2155.6900        1.0718100       0.69938414       0.10817710       0.48610203      -0.27560000      -0.30300000        1.0000000       0.98494431
  2155.7900        1.0399700       0.70178174       0.10821554       0.48612900      -0.29515000       0.51725000E-01    1.0000000       0.89439707
  2155.8900        1.0127800       0.70413280       0.10825398       0.48615597      -0.26525500       0.12342500        1.0000000       0.81627065
  2155.9900       0.98691900       0.70643760       0.10829241       0.48618294      -0.27046500       0.36425000E-01    1.0000000       0.74178135
  2156.0900       0.95868700       0.70869641       0.10833085       0.48620991      -0.25797000       0.30625000E-01    1.0000000       0.66114314
  2156.1900       0.93532500       0.71090953       0.10836929       0.48623688      -0.26434000      -0.19447500        1.0000000       0.59350535
  2156.2900       0.90581900       0.71307723       0.10840772       0.48626385      -0.29686500      -0.24182500        1.0000000       0.50973880
  2156.3900       0.87595200       0.71519979       0.10844616       0.48629082      -0.31270500       0.12725000E-01    1.0000000       0.42513689
  2156.4900       0.84327800       0.71727750       0.10848460       0.48631779      -0.29432000       0.18612500        1.0000000       0.33323001
  2156.5900       0.81708800       0.71931064       0.10852303       0.48634476      -0.27548000       0.13400000E-01    1.0000000       0.25858907
  2156.6900       0.78818200       0.72129948       0.10856147       0.48637172      -0.29164000       0.12350000E-01    1.0000000       0.17688233
  2156.7900       0.75876000       0.72324432       0.10859991       0.48639869      -0.27301000       0.34617500        1.0000000       0.93927322E-01
  2156.8900       0.73358000       0.72514544       0.10863834       0.48642566      -0.22240500       0.37157500        1.0000000       0.22306659E-01
  2156.9900       0.71427900       0.72700310       0.10867678       0.48645263      -0.19869500       0.18085000        1.0000000      -0.33651079E-01
  2157.0900       0.69384100       0.72881761       0.10871522       0.48647960      -0.18623500       0.15195000        1.0000000      -0.92501657E-01
  2157.1900       0.67703200       0.73058923       0.10875365       0.48650657      -0.16830500       0.10022500        1.0000000      -0.14164131
  2157.2900       0.66018000       0.73231825       0.10879209       0.48653354      -0.16619000       0.74125000E-01    1.0000000      -0.19078203
  2157.3900       0.64379400       0.73400496       0.10883053       0.48656051      -0.15348000       0.22150000        1.0000000      -0.23857841
  2157.4900       0.62948400       0.73564963       0.10886896       0.48658748      -0.12189000       0.12565000        1.0000000      -0.28077329
  2157.5900       0.61941600       0.73725255       0.10890740       0.48661444      -0.12835000      -0.52850000E-01    1.0000000      -0.31163904
  2157.6900       0.60381400       0.73881399       0.10894584       0.48664141      -0.13246000       0.87700000E-01    1.0000000      -0.35703072
  2157.7900       0.59292400       0.74033425       0.10898428       0.48666838      -0.11081000       0.15532500        1.0000000      -0.38985177
  2157.8900       0.58165200       0.74181359       0.10902271       0.48669535      -0.10139500       0.28425000E-01    1.0000000      -0.42357491
  2157.9900       0.57264500       0.74325231       0.10906115       0.48672232      -0.10512500       0.42400000E-01    1.0000000      -0.45120041
  2158.0900       0.56062700       0.74465069       0.10909959       0.48674929      -0.92915000E-01   0.14350000        1.0000000      -0.48668232
  2158.1900       0.55406200       0.74600900       0.10913802       0.48677626      -0.76425000E-01   0.87000000E-01    1.0000000      -0.50763688
  2158.2900       0.54534200       0.74732753       0.10917646       0.48680323      -0.75515000E-01   0.13342500        1.0000000      -0.53418551
  2158.3900       0.53895900       0.74860656       0.10921490       0.48683020      -0.49740000E-01   0.23805000        1.0000000      -0.55444907
  2158.4900       0.53539400       0.74984637       0.10925333       0.48685716      -0.27905000E-01   0.10905000        1.0000000      -0.56715622
  2158.5900       0.53337800       0.75104725       0.10929177       0.48688413      -0.27930000E-01   0.66075000E-01    1.0000000      -0.57566381
  2158.6900       0.52980800       0.75220948       0.10933021       0.48691110      -0.14690000E-01   0.22345000        1.0000000      -0.58817899
  2158.7900       0.53044000       0.75333333       0.10936864       0.48693807       0.16760000E-01   0.15412500        1.0000000      -0.58947978
  2158.8900       0.53316000       0.75441909       0.10940708       0.48696504       0.16135000E-01   0.25900000E-01    1.0000000      -0.58515776
  2158.9900       0.53366700       0.75546704       0.10944552       0.48699201       0.21940000E-01   0.10947500        1.0000000      -0.58658840
  2159.0900       0.53754800       0.75647747       0.10948395       0.48701898       0.38030000E-01   0.53500000E-01    1.0000000      -0.57899668
  2159.1900       0.54127300       0.75745065       0.10952239       0.48704595       0.32640000E-01  -0.29200000E-01    1.0000000      -0.57171902
  2159.2900       0.54407600       0.75838687       0.10956083       0.48707292       0.32190000E-01   0.54725000E-01    1.0000000      -0.56678200
  2159.3900       0.54771100       0.75928641       0.10959926       0.48709988       0.43585000E-01   0.46675000E-01    1.0000000      -0.55954760
  2159.4900       0.55279300       0.76014955       0.10963770       0.48712685       0.41525000E-01   0.48450000E-01    1.0000000      -0.54839009
  2159.5900       0.55601600       0.76097657       0.10967614       0.48715382       0.53275000E-01   0.40375000E-01    1.0000000      -0.54205351
  2159.6900       0.56344800       0.76176776       0.10971457       0.48718079       0.49600000E-01  -0.45775000E-01    1.0000000      -0.52449074
  2159.7900       0.56593600       0.76252339       0.10975301       0.48720776       0.44120000E-01   0.45425000E-01    1.0000000      -0.51990919
  2159.8900       0.57227200       0.76324375       0.10979145       0.48723473       0.58685000E-01  -0.22500000E-02    1.0000000      -0.50505766
  2159.9900       0.57767300       0.76392912       0.10982988       0.48726170       0.43670000E-01  -0.11502500        1.0000000      -0.49258636
  2160.0900       0.58100600       0.76457978       0.10986832       0.48728867       0.35680000E-01  -0.31275000E-01    1.0000000      -0.48549246
  2160.1900       0.58480900       0.76519601       0.10990676       0.48731564       0.37415000E-01   0.69850000E-01    1.0000000      -0.47706450
  2160.2900       0.58848900       0.76577810       0.10994519       0.48734261       0.49650000E-01   0.57925000E-01    1.0000000      -0.46887155
  2160.3900       0.59473900       0.76632633       0.10998363       0.48736957       0.49000000E-01   0.21325000E-01    1.0000000      -0.45379222
  2160.4900       0.59828900       0.76684097       0.11002207       0.48739654       0.53915000E-01   0.37613333E-01    1.0000000      -0.44576470
  2160.9900       0.62708800       0.76892034       0.11021425       0.48753139       0.71568000E-01   0.39836000E-01    1.0000000      -0.37510004
  2161.4900       0.66985700       0.77020245       0.11040644       0.48766623       0.93751000E-01   0.23127000E-01    1.0000000      -0.26538083
  2161.9900       0.72083900       0.77072254       0.11059862       0.48780108       0.94695000E-01  -0.35775000E-01    1.0000000      -0.13192560
  2162.4900       0.76455200       0.77051582       0.11079080       0.48793592       0.57976000E-01  -0.10500500        1.0000000      -0.15772337E-01
  2162.9900       0.77881500       0.76961752       0.11098299       0.48807077      -0.10310000E-01  -0.11014400        1.0000000       0.24324323E-01
  2163.4900       0.75424200       0.76806287       0.11117517       0.48820561      -0.52168000E-01  -0.29564000E-01    1.0000000      -0.36551675E-01
  2163.9900       0.72664700       0.76588710       0.11136735       0.48834046      -0.39874000E-01   0.51175000E-01    1.0000000      -0.10377721
  2164.4900       0.71436800       0.76312544       0.11155954       0.48847530      -0.99300000E-03   0.61592000E-01    1.0000000      -0.12894744
  2164.9900       0.72565400       0.75981310       0.11175172       0.48861014       0.21718000E-01   0.22688000E-01    1.0000000      -0.90339634E-01
  2165.4900       0.73608600       0.75598533       0.11194391       0.48874499       0.21695000E-01  -0.36150000E-02    1.0000000      -0.52627205E-01
  2165.9900       0.74734900       0.75167734       0.11213609       0.48887983       0.18103000E-01  -0.15720000E-02    1.0000000      -0.11447044E-01
  2166.4900       0.75418900       0.74692436       0.11232827       0.48901468       0.20123000E-01   0.15589000E-01    1.0000000       0.19212579E-01
  2166.9900       0.76747200       0.74176163       0.11252046       0.48914952       0.33692000E-01   0.19586000E-01    1.0000000       0.67995506E-01
  2167.4900       0.78788100       0.73622436       0.11271264       0.48928437       0.39709000E-01   0.25560000E-02    1.0000000       0.13661489
  2167.9900       0.80718100       0.73034778       0.11290483       0.48941921       0.36248000E-01  -0.96450000E-02    1.0000000       0.20319868
  2168.4900       0.82412900       0.72416712       0.11309701       0.48955406       0.30064000E-01  -0.20758000E-01    1.0000000       0.26436639
  2168.9900       0.83724500       0.71771761       0.11328919       0.48968890       0.15490000E-01  -0.41843000E-01    1.0000000       0.31611075
  2169.4900       0.83961900       0.71103448       0.11348138       0.48982375      -0.11779000E-01  -0.45239000E-01    1.0000000       0.34006390
  2169.9900       0.82546600       0.70415295       0.11367356       0.48995859      -0.29749000E-01  -0.24238000E-01    1.0000000       0.32083326
  2170.4900       0.80987000       0.69710824       0.11386574       0.49009343      -0.36017000E-01  -0.72510000E-02    1.0000000       0.29821789
  2170.9900       0.78944900       0.68993559       0.11405793       0.49022828      -0.37000000E-01   0.66530000E-02    1.0000000       0.26318034
  2171.4900       0.77287000       0.68267022       0.11425011       0.49036312      -0.29364000E-01   0.87190000E-02    1.0000000       0.23854884
  2171.9900       0.76008500       0.67534736       0.11444230       0.49049797      -0.28281000E-01  -0.74900000E-03    1.0000000       0.22410326
  2172.4900       0.74458900       0.66800224       0.11463448       0.49063281      -0.30113000E-01  -0.56310000E-02    1.0000000       0.20254686
  2172.9900       0.72997200       0.66067009       0.11482666       0.49076766      -0.33912000E-01  -0.65660000E-02    1.0000000       0.18328085
  2173.4900       0.71067700       0.65338612       0.11501885       0.49090250      -0.36679000E-01  -0.17300000E-02    1.0000000       0.15151560
  2173.9900       0.69329300       0.64618557       0.11521103       0.49103735      -0.35642000E-01   0.23510000E-02    1.0000000       0.12458372
  2174.4900       0.67503500       0.63910366       0.11540322       0.49117219      -0.34328000E-01   0.31400000E-03    1.0000000       0.95026614E-01
  2174.9900       0.65896500       0.63217559       0.11559540       0.49130704      -0.35328000E-01   0.15780000E-02    1.0000000       0.70849201E-01
  2175.4900       0.63970700       0.62542666       0.11578758       0.49144188      -0.32750000E-01   0.35360000E-02    1.0000000       0.37766819E-01
  2175.9900       0.62621500       0.61885844       0.11597977       0.49157673      -0.31792000E-01  -0.52150000E-02    1.0000000       0.19455698E-01
  2176.4900       0.60791500       0.61246902       0.11617195       0.49171157      -0.37965000E-01   0.15030000E-02    1.0000000      -0.12043890E-01
  2176.9900       0.58825000       0.60625650       0.11636413       0.49184641      -0.30289000E-01   0.16025000E-01    1.0000000      -0.47621302E-01
  2177.4900       0.57762600       0.60021899       0.11655632       0.49198126      -0.21940000E-01   0.48250000E-02    1.0000000      -0.59751043E-01
  2177.9900       0.56631000       0.59435456       0.11674850       0.49211610      -0.25464000E-01  -0.11920000E-02    1.0000000      -0.74168669E-01
  2178.4900       0.55216200       0.58866132       0.11694069       0.49225095      -0.23132000E-01   0.10308000E-01    1.0000000      -0.96528744E-01
  2178.9900       0.54317800       0.58313737       0.11713287       0.49238579      -0.15156000E-01   0.42960000E-02    1.0000000      -0.10567943
  2179.4900       0.53700600       0.57778079       0.11732505       0.49252064      -0.18836000E-01  -0.63220000E-02    1.0000000      -0.10783596
  2179.9900       0.52434200       0.57258969       0.11751724       0.49265548      -0.21478000E-01   0.22630000E-02    1.0000000      -0.12759933
  2180.4900       0.51552800       0.56756216       0.11770942       0.49279033      -0.16573000E-01   0.44770000E-02    1.0000000      -0.13761330
  2180.9900       0.50776900       0.56269630       0.11790161       0.49292517      -0.17001000E-01   0.73860000E-02    1.0000000      -0.14526470
  2181.4900       0.49852700       0.55799020       0.11809379       0.49306002      -0.91870000E-02   0.14291000E-01    1.0000000      -0.15726066
  2181.9900       0.49858200       0.55344195       0.11828597       0.49319486      -0.27100000E-02   0.52650000E-02    1.0000000      -0.14508658
  2182.4900       0.49581700       0.54904966       0.11847816       0.49332971      -0.39220000E-02   0.14170000E-02    1.0000000      -0.14078292
  2182.9900       0.49466000       0.54481141       0.11867034       0.49346455      -0.12930000E-02   0.52540000E-02    1.0000000      -0.13263404
  2183.4900       0.49452400       0.54072531       0.11886252       0.49359939       0.13320000E-02   0.44850000E-02    1.0000000      -0.12218731
  2183.9900       0.49599200       0.53678944       0.11905471       0.49373424       0.31920000E-02   0.40380000E-02    1.0000000      -0.10789586
  2184.4900       0.49771600       0.53300191       0.11924689       0.49386908       0.53700000E-02   0.23280000E-02    1.0000000      -0.93319672E-01
  2184.9900       0.50136200       0.52936081       0.11943908       0.49400393       0.55200000E-02  -0.26820000E-02    1.0000000      -0.74047683E-01
  2185.4900       0.50323600       0.52586424       0.11963126       0.49413877       0.26880000E-02  -0.31410000E-02    1.0000000      -0.59844276E-01
  2185.9900       0.50405000       0.52251029       0.11982344       0.49427362       0.23790000E-02  -0.22680000E-02    1.0000000      -0.48821407E-01
  2186.4900       0.50561500       0.51929705       0.12001563       0.49440846       0.42000000E-03  -0.10260000E-02    1.0000000      -0.36184539E-01
  2186.9900       0.50447000       0.51622263       0.12020781       0.49454331       0.13530000E-02  -0.10690000E-02    1.0000000      -0.31081845E-01
  2187.4900       0.50696800       0.51328511       0.12040000       0.49467815      -0.64900000E-03  -0.81800000E-02    1.0000000      -0.16706686E-01
  2187.9900       0.50382100       0.51048260       0.12059218       0.49481300      -0.68270000E-02  -0.42610000E-02    1.0000000      -0.17617740E-01
  2188.4900       0.50014100       0.50781318       0.12078436       0.49494784      -0.49100000E-02   0.48130000E-02    1.0000000      -0.20290408E-01
  2188.9900       0.49891100       0.50527496       0.12097655       0.49508269      -0.20140000E-02   0.10410000E-02    1.0000000      -0.16830594E-01
  2189.4900       0.49812700       0.50286603       0.12116873       0.49521753      -0.38690000E-02  -0.10500000E-02    1.0000000      -0.12533186E-01
  2189.9900       0.49504200       0.50058449       0.12136091       0.49535237      -0.30640000E-02   0.22840000E-02    1.0000000      -0.14658060E-01
  2190.4900       0.49506300       0.49842842       0.12155310       0.49548722      -0.15850000E-02  -0.46500000E-03    1.0000000      -0.89004393E-02
  2190.9900       0.49345700       0.49639593       0.12174528       0.49562206      -0.35290000E-02   0.17740000E-02    1.0000000      -0.77725189E-02
  2191.4900       0.49153400       0.49448512       0.12193747       0.49575691       0.18900000E-03   0.38830000E-02    1.0000000      -0.78047419E-02
  2191.9900       0.49364600       0.49269407       0.12212965       0.49589175       0.35400000E-03  -0.23840000E-02    1.0000000       0.25175416E-02
  2192.4900       0.49188800       0.49102089       0.12232183       0.49602660      -0.21950000E-02   0.19280000E-02    1.0000000       0.22932348E-02
  2192.9900       0.49145100       0.48946366       0.12251402       0.49616144       0.22820000E-02   0.79350000E-02    1.0000000       0.52558676E-02
  2193.4900       0.49417000       0.48802049       0.12270620       0.49629629       0.57400000E-02   0.14330000E-02    1.0000000       0.16263450E-01
  2193.9900       0.49719100       0.48668946       0.12289839       0.49643113       0.37150000E-02  -0.36580000E-02    1.0000000       0.27773125E-01
  2194.4900       0.49788500       0.48546868       0.12309057       0.49656598       0.20820000E-02  -0.11280000E-02    1.0000000       0.32837085E-01
  2194.9900       0.49927300       0.48435625       0.12328275       0.49670082       0.25870000E-02  -0.28000000E-03    1.0000000       0.39449922E-01
  2195.4900       0.50047200       0.48335025       0.12347494       0.49683566       0.18020000E-02  -0.22490000E-02    1.0000000       0.45281427E-01
  2195.9900       0.50107500       0.48244878       0.12366712       0.49697051       0.33800000E-03  -0.30040000E-02    1.0000000       0.49260255E-01
  2196.4900       0.50081000       0.48164993       0.12385930       0.49710535      -0.12020000E-02   0.17140000E-02    1.0000000       0.50672093E-01
  2196.9900       0.49987300       0.48095181       0.12405149       0.49724020       0.20520000E-02   0.31330000E-02    1.0000000       0.50040332E-01
  2197.4900       0.50286200       0.48035251       0.12424367       0.49737504       0.19310000E-02  -0.51670000E-02    1.0000000       0.59530211E-01
  2197.9900       0.50180400       0.47985013       0.12443586       0.49750989      -0.31150000E-02  -0.47260000E-02    1.0000000       0.58060797E-01
  2198.4900       0.49974700       0.47944275       0.12462804       0.49764473      -0.27950000E-02  -0.17000000E-04    1.0000000       0.53698087E-01
  2198.9900       0.49900900       0.47912848       0.12482022       0.49777958      -0.31320000E-02  -0.42600000E-03    1.0000000       0.52577467E-01
  2199.4900       0.49661500       0.47890540       0.12501241       0.49791442      -0.32210000E-02   0.11940000E-02    1.0000000       0.46836075E-01
  2199.9900       0.49578800       0.47877163       0.12520459       0.49804927      -0.19380000E-02  -0.25283333E-02    1.0000000       0.45002726E-01
  2200.4900       0.49467700       0.47872524       0.12539678       0.49818411      -0.57493333E-02  -0.18990000E-02    1.0000000       0.42187167E-01
  2201.4900       0.48716400       0.47888703       0.12578114       0.49845380      -0.47865000E-02   0.14099167E-02    1.0000000       0.21889870E-01
  2202.4900       0.48510400       0.47937553       0.12616551       0.49872349      -0.29295000E-02   0.56550000E-03    1.0000000       0.15149923E-01
  2203.4900       0.48130500       0.48017551       0.12654988       0.49899318      -0.36555000E-02   0.41425000E-03    1.0000000       0.29871369E-02
  2204.4900       0.47779300       0.48127173       0.12693425       0.49926287      -0.21010000E-02   0.12740000E-02    1.0000000      -0.92000893E-02
  2205.4900       0.47710300       0.48264895       0.12731861       0.49953256      -0.11075000E-02  -0.35000000E-04    1.0000000      -0.14667218E-01
  2206.4900       0.47557800       0.48429194       0.12770298       0.49980225      -0.21710000E-02   0.74000000E-04    1.0000000      -0.23045521E-01
  2207.4900       0.47276100       0.48618547       0.12808735       0.50007194      -0.95950000E-03   0.11430000E-02    1.0000000      -0.35503322E-01
  2208.4900       0.47365900       0.48831430       0.12847172       0.50034162       0.11500000E-03   0.56950000E-03    1.0000000      -0.38758452E-01
  2209.4900       0.47299100       0.49066318       0.12885608       0.50061131       0.17950000E-03   0.10280000E-02    1.0000000      -0.46737131E-01
  2210.4900       0.47401800       0.49321690       0.12924045       0.50088100       0.21710000E-02   0.21562500E-02    1.0000000      -0.50774791E-01
  2211.4900       0.47733300       0.49596020       0.12962482       0.50115069       0.44920000E-02   0.20855000E-02    1.0000000      -0.49262848E-01
  2212.4900       0.48300200       0.49887787       0.13000919       0.50142038       0.63420000E-02   0.16372500E-02    1.0000000      -0.41986459E-01
  2213.4900       0.49001700       0.50195465       0.13039355       0.50169007       0.77665000E-02   0.63025000E-03    1.0000000      -0.31571160E-01
  2214.4900       0.49853500       0.50517531       0.13077792       0.50195976       0.76025000E-02  -0.99575000E-03    1.0000000      -0.17561445E-01
  2215.4900       0.50522200       0.50852462       0.13116229       0.50222945       0.57750000E-02   0.22600000E-03    1.0000000      -0.87343565E-02
  2216.4900       0.51008500       0.51198735       0.13154666       0.50249914       0.80545000E-02   0.22915000E-02    1.0000000      -0.50310890E-02
  2217.4900       0.52133100       0.51554825       0.13193103       0.50276883       0.10358000E-01  -0.24150000E-03    1.0000000       0.15293476E-01
  2218.4900       0.53080100       0.51919209       0.13231539       0.50303852       0.75715000E-02  -0.18545000E-02    1.0000000       0.30701751E-01
  2219.4900       0.53647400       0.52290364       0.13269976       0.50330821       0.66490000E-02  -0.73775000E-03    1.0000000       0.35889148E-01
  2220.4900       0.54409900       0.52666766       0.13308413       0.50357790       0.60960000E-02  -0.11290000E-02    1.0000000       0.46100180E-01
  2221.4900       0.54866600       0.53046891       0.13346850       0.50384758       0.43910000E-02  -0.69525000E-03    1.0000000       0.48125334E-01
  2222.4900       0.55288100       0.53429216       0.13385286       0.50411727       0.47055000E-02  -0.10140000E-02    1.0000000       0.49161385E-01
  2223.4900       0.55807700       0.53812217       0.13423723       0.50438696       0.23630000E-02  -0.24535000E-02    1.0000000       0.52773976E-01
  2224.4900       0.55760700       0.54194371       0.13462160       0.50465665      -0.20150000E-03  -0.13515000E-02    1.0000000       0.41424263E-01
  2225.4900       0.55767400       0.54574154       0.13500597       0.50492634      -0.34000000E-03  -0.21975000E-03    1.0000000       0.31557443E-01
  2226.4900       0.55692700       0.54950043       0.13539033       0.50519603      -0.64100000E-03   0.27275000E-03    1.0000000       0.19640855E-01
  2227.4900       0.55639200       0.55320513       0.13577470       0.50546572       0.20550000E-03   0.40650000E-03    1.0000000       0.84282279E-02
  2228.4900       0.55733800       0.55684042       0.13615907       0.50573541       0.17200000E-03   0.91050000E-03    1.0000000       0.13159435E-02
  2229.4900       0.55673600       0.56039105       0.13654344       0.50600510       0.20265000E-02   0.25902500E-02    1.0000000      -0.96664165E-02
  2230.4900       0.56139100       0.56384180       0.13692781       0.50627479       0.53525000E-02   0.10492500E-02    1.0000000      -0.64815646E-02
  2231.4900       0.56744100       0.56717743       0.13731217       0.50654448       0.41250000E-02  -0.17102500E-02    1.0000000       0.69706880E-03
  2232.4900       0.56964100       0.57038269       0.13769654       0.50681417       0.19320000E-02  -0.37050000E-03    1.0000000      -0.19615282E-02
  2233.4900       0.57130500       0.57344236       0.13808091       0.50708385       0.33840000E-02   0.10405000E-02    1.0000000      -0.56526187E-02
  2234.4900       0.57640900       0.57634120       0.13846528       0.50735354       0.40130000E-02  -0.66350000E-03    1.0000000       0.17930748E-03
  2235.4900       0.57933100       0.57906397       0.13884964       0.50762323       0.20570000E-02  -0.10202500E-02    1.0000000       0.70619687E-03
  2236.4900       0.58052300       0.58159544       0.13923401       0.50789292       0.19725000E-02  -0.26350000E-03    1.0000000      -0.28362652E-02
  2237.4900       0.58327600       0.58392038       0.13961838       0.50816261       0.15300000E-02  -0.83275000E-03    1.0000000      -0.17041691E-02
  2238.4900       0.58358300       0.58602354       0.14000275       0.50843230       0.30700000E-03  -0.12230000E-02    1.0000000      -0.64544228E-02
