# XDI/1.0 Athena/0.9.26
# Element.edge:                  K
# Element.symbol:                P
# Column.1:                      energy eV
# Column.2:                      xmu
# Column.3:                      bkg
# Column.4:                      pre_edge
# Column.5:                      post_edge
# Column.6:                      der
# Column.7:                      sec
# Column.8:                      i0
# Column.9:                      chi(e)
# Athena.e0:                     2154
# Athena.eshift:                 0.49
# Athena.rbkg:                   1.0
# Athena.importance:             1
# Athena.standard:               None
# Athena.bkg_kweight:            2
# Athena.edge_step:              1.0022665
# Athena.fixed_step:             no
# Athena.pre_edge_range:         -22.400 -10.000
# Athena.pre_edge_line:          -2.765506 + 0.0013388 * E
# Athena.normalization_range:    34.000 56.600
# Athena.post_edge_polynomial:   -4.227254 + 0.00248273 * E + 0 * E^2 + 0 * E^3
# Athena.spline_range_energy:    0.000 85.601
# Athena.clamps:                 0 24
# Athena.spline_range_k:         0.000 4.740
# Athena.kweight:                2
# Athena.window:                 hanning
# Athena.phase_correction:       no
# Athena.k_range:                2.740 3.000
# Athena.dk:                     1
# Athena.r_range:                1 3
# Athena.dr:                     0.0
# Athena.window:                 hanning
# Athena.plot_multiplier:        1
# Athena.y_offset:               0
# ///
#------------------------
#   e         xmu        bkg        pre_edge        post_edge        der        sec        i0        chie
  2125.4900       0.96665700E-01   0.96665700E-01   0.80109917E-01    1.0497631      -0.44530000E-03   0.15417500E-03    1.0000000        0.0000000
  2127.4900       0.95775100E-01   0.95775100E-01   0.82787526E-01    1.0547286      -0.13695000E-03   0.91268750E-04    1.0000000        0.0000000
  2129.4900       0.96117900E-01   0.96117900E-01   0.85465135E-01    1.0596941      -0.80225000E-04  -0.79368750E-04    1.0000000        0.0000000
  2131.4900       0.95454200E-01   0.95454200E-01   0.88142745E-01    1.0646595      -0.45442500E-03   0.69812500E-05    1.0000000        0.0000000
  2133.4900       0.94300200E-01   0.94300200E-01   0.90820354E-01    1.0696250      -0.52300000E-04   0.41293750E-03    1.0000000        0.0000000
  2135.4900       0.95245000E-01   0.95245000E-01   0.93497963E-01    1.0745904       0.11973250E-02   0.14875000E-04    1.0000000        0.0000000
  2137.4900       0.99089500E-01   0.99089500E-01   0.96175572E-01    1.0795559       0.72000000E-05  -0.54396458E-03    1.0000000        0.0000000
  2139.4900       0.95273800E-01   0.95273800E-01   0.98853181E-01    1.0845214      -0.97853333E-03   0.20420606E-03    1.0000000        0.0000000
  2140.4900       0.96153900E-01   0.96153900E-01   0.10019199        1.0870041       0.61981818E-03  -0.69515152E-04    1.0000000        0.0000000
  2140.5900       0.95955600E-01   0.95955600E-01   0.10032587        1.0872524      -0.10550000E-02   0.14553409E-01    1.0000000        0.0000000
  2140.6900       0.95942900E-01   0.95942900E-01   0.10045975        1.0875006       0.35305000E-02   0.34557500E-01    1.0000000        0.0000000
  2140.7900       0.96661700E-01   0.96661700E-01   0.10059363        1.0877489       0.58565000E-02  -0.20550000E-01    1.0000000        0.0000000
  2140.8900       0.97114200E-01   0.97114200E-01   0.10072751        1.0879972      -0.57950000E-03  -0.17917500E-01    1.0000000        0.0000000
  2140.9900       0.96545800E-01   0.96545800E-01   0.10086139        1.0882455       0.22730000E-02   0.24790000E-01    1.0000000        0.0000000
  2141.0900       0.97568800E-01   0.97568800E-01   0.10099527        1.0884937       0.43785000E-02  -0.28915000E-01    1.0000000        0.0000000
  2141.1900       0.97421500E-01   0.97421500E-01   0.10112915        1.0887420      -0.35100000E-02  -0.12097500E-01    1.0000000        0.0000000
  2141.2900       0.96866800E-01   0.96866800E-01   0.10126303        1.0889903       0.19590000E-02   0.66132500E-01    1.0000000        0.0000000
  2141.3900       0.97813300E-01   0.97813300E-01   0.10139691        1.0892385       0.97165000E-02   0.48072500E-01    1.0000000        0.0000000
  2141.4900       0.98810100E-01   0.98810100E-01   0.10153079        1.0894868       0.11573500E-01  -0.47392500E-01    1.0000000        0.0000000
  2141.5900       0.10012800       0.10012800       0.10166467        1.0897351       0.23800000E-03  -0.80337500E-01    1.0000000        0.0000000
  2141.6900       0.98857700E-01   0.98857700E-01   0.10179855        1.0899834      -0.44940000E-02   0.31875000E-02    1.0000000        0.0000000
  2141.7900       0.99229200E-01   0.99229200E-01   0.10193243        1.0902316       0.87550000E-03   0.52065000E-01    1.0000000        0.0000000
  2141.8900       0.99032800E-01   0.99032800E-01   0.10206631        1.0904799       0.59190000E-02   0.31602500E-01    1.0000000        0.0000000
  2141.9900       0.10041300       0.10041300       0.10220019        1.0907282       0.71960000E-02  -0.18945000E-01    1.0000000        0.0000000
  2142.0900       0.10047200       0.10047200       0.10233407        1.0909765       0.21300000E-02   0.71450000E-02    1.0000000        0.0000000
  2142.1900       0.10083900       0.10083900       0.10246795        1.0912247       0.86250000E-02   0.20050000E-01    1.0000000        0.0000000
  2142.2900       0.10219700       0.10219700       0.10260183        1.0914730       0.61400000E-02  -0.40175000E-01    1.0000000        0.0000000
  2142.3900       0.10206700       0.10206700       0.10273571        1.0917213       0.59000000E-03  -0.17225000E-01    1.0000000        0.0000000
  2142.4900       0.10231500       0.10231500       0.10286960        1.0919695       0.26950000E-02   0.10325000E-01    1.0000000        0.0000000
  2142.5900       0.10260600       0.10260600       0.10300348        1.0922178       0.26550000E-02   0.19725000E-01    1.0000000        0.0000000
  2142.6900       0.10284600       0.10284600       0.10313736        1.0924661       0.66400000E-02   0.40875000E-01    1.0000000        0.0000000
  2142.7900       0.10393400       0.10393400       0.10327124        1.0927144       0.10830000E-01  -0.66750000E-02    1.0000000        0.0000000
  2142.8900       0.10501200       0.10501200       0.10340512        1.0929626       0.53050000E-02  -0.29675000E-01    1.0000000        0.0000000
  2142.9900       0.10499500       0.10499500       0.10353900        1.0932109       0.48950000E-02   0.96000000E-02    1.0000000        0.0000000
  2143.0900       0.10599100       0.10599100       0.10367288        1.0934592       0.72250000E-02  -0.10150000E-01    1.0000000        0.0000000
  2143.1900       0.10644000       0.10644000       0.10380676        1.0937075       0.28650000E-02  -0.18750000E-02    1.0000000        0.0000000
  2143.2900       0.10656400       0.10656400       0.10394064        1.0939557       0.68500000E-02   0.32125000E-01    1.0000000        0.0000000
  2143.3900       0.10781000       0.10781000       0.10407452        1.0942040       0.92900000E-02  -0.18850000E-01    1.0000000        0.0000000
  2143.4900       0.10842200       0.10842200       0.10420840        1.0944523       0.30800000E-02  -0.17500000E-02    1.0000000        0.0000000
  2143.5900       0.10842600       0.10842600       0.10434228        1.0947006       0.89400000E-02   0.48750000E-01    1.0000000        0.0000000
  2143.6900       0.11021000       0.11021000       0.10447616        1.0949488       0.12830000E-01  -0.23025000E-01    1.0000000        0.0000000
  2143.7900       0.11099200       0.11099200       0.10461004        1.0951971       0.43350000E-02  -0.47625000E-01    1.0000000        0.0000000
  2143.8900       0.11107700       0.11107700       0.10474392        1.0954454       0.33050000E-02  -0.92750000E-02    1.0000000        0.0000000
  2143.9900       0.11165300       0.11165300       0.10487780        1.0956936       0.24800000E-02   0.34575000E-01    1.0000000        0.0000000
  2144.0900       0.11157300       0.11157300       0.10501168        1.0959419       0.10220000E-01   0.74450000E-01    1.0000000        0.0000000
  2144.1900       0.11369700       0.11369700       0.10514556        1.0961902       0.17370000E-01  -0.10425000E-01    1.0000000        0.0000000
  2144.2900       0.11504700       0.11504700       0.10527944        1.0964385       0.81350000E-02  -0.75875000E-01    1.0000000        0.0000000
  2144.3900       0.11532400       0.11532400       0.10541332        1.0966867       0.21950000E-02   0.36750000E-02    1.0000000        0.0000000
  2144.4900       0.11548600       0.11548600       0.10554720        1.0969350       0.88700000E-02   0.69300000E-01    1.0000000        0.0000000
  2144.5900       0.11709800       0.11709800       0.10568108        1.0971833       0.16055000E-01   0.10200000E-01    1.0000000        0.0000000
  2144.6900       0.11869700       0.11869700       0.10581497        1.0974316       0.10910000E-01  -0.26925000E-01    1.0000000        0.0000000
  2144.7900       0.11928000       0.11928000       0.10594885        1.0976798       0.10670000E-01  -0.60000000E-03    1.0000000        0.0000000
  2144.8900       0.12083100       0.12083100       0.10608273        1.0979281       0.10790000E-01  -0.39750000E-02    1.0000000        0.0000000
  2144.9900       0.12143800       0.12143800       0.10621661        1.0981764       0.98750000E-02   0.12775000E-01    1.0000000        0.0000000
  2145.0900       0.12280600       0.12280600       0.10635049        1.0984246       0.13345000E-01   0.23625000E-01    1.0000000        0.0000000
  2145.1900       0.12410700       0.12410700       0.10648437        1.0986729       0.14600000E-01  -0.23275000E-01    1.0000000        0.0000000
  2145.2900       0.12572600       0.12572600       0.10661825        1.0989212       0.86900000E-02  -0.30200000E-01    1.0000000        0.0000000
  2145.3900       0.12584500       0.12584500       0.10675213        1.0991695       0.85600000E-02   0.41300000E-01    1.0000000        0.0000000
  2145.4900       0.12743800       0.12743800       0.10688601        1.0994177       0.16950000E-01   0.29700000E-01    1.0000000        0.0000000
  2145.5900       0.12923500       0.12923500       0.10701989        1.0996660       0.14500000E-01  -0.13975000E-01    1.0000000        0.0000000
  2145.6900       0.13033800       0.13033800       0.10715377        1.0999143       0.14155000E-01   0.28600000E-01    1.0000000        0.0000000
  2145.7900       0.13206600       0.13206600       0.10728765        1.1001626       0.20220000E-01   0.87750000E-02    1.0000000        0.0000000
  2145.8900       0.13438200       0.13438200       0.10742153        1.1004108       0.15910000E-01  -0.26200000E-01    1.0000000        0.0000000
  2145.9900       0.13524800       0.13524800       0.10755541        1.1006591       0.14980000E-01   0.21750000E-01    1.0000000        0.0000000
  2146.0900       0.13737800       0.13737800       0.10768929        1.1009074       0.20260000E-01   0.11050000E-01    1.0000000        0.0000000
  2146.1900       0.13930000       0.13930000       0.10782317        1.1011556       0.17190000E-01   0.42250000E-02    1.0000000        0.0000000
  2146.2900       0.14081600       0.14081600       0.10795705        1.1014039       0.21105000E-01   0.46300000E-01    1.0000000        0.0000000
  2146.3900       0.14352100       0.14352100       0.10809093        1.1016522       0.26450000E-01  -0.61750000E-02    1.0000000        0.0000000
  2146.4900       0.14610600       0.14610600       0.10822481        1.1019005       0.19870000E-01  -0.53250000E-02    1.0000000        0.0000000
  2146.5900       0.14749500       0.14749500       0.10835869        1.1021487       0.25385000E-01   0.26600000E-01    1.0000000        0.0000000
  2146.6900       0.15118300       0.15118300       0.10849257        1.1023970       0.25190000E-01   0.24500000E-02    1.0000000        0.0000000
  2146.7900       0.15253300       0.15253300       0.10862645        1.1026453       0.25875000E-01   0.26650000E-01    1.0000000        0.0000000
  2146.8900       0.15635800       0.15635800       0.10876034        1.1028936       0.30520000E-01  -0.28500000E-02    1.0000000        0.0000000
  2146.9900       0.15863700       0.15863700       0.10889422        1.1031418       0.25305000E-01  -0.42750000E-02    1.0000000        0.0000000
  2147.0900       0.16141900       0.16141900       0.10902810        1.1033901       0.29665000E-01   0.25375000E-01    1.0000000        0.0000000
  2147.1900       0.16457000       0.16457000       0.10916198        1.1036384       0.30380000E-01   0.12125000E-01    1.0000000        0.0000000
  2147.2900       0.16749500       0.16749500       0.10929586        1.1038867       0.32090000E-01   0.29250000E-02    1.0000000        0.0000000
  2147.3900       0.17098800       0.17098800       0.10942974        1.1041349       0.30965000E-01   0.54350000E-01    1.0000000        0.0000000
  2147.4900       0.17368800       0.17368800       0.10956362        1.1043832       0.42960000E-01   0.69825000E-01    1.0000000        0.0000000
  2147.5900       0.17958000       0.17958000       0.10969750        1.1046315       0.44930000E-01  -0.38325000E-01    1.0000000        0.0000000
  2147.6900       0.18267400       0.18267400       0.10983138        1.1048797       0.35295000E-01  -0.12500000E-01    1.0000000        0.0000000
  2147.7900       0.18663900       0.18663900       0.10996526        1.1051280       0.42430000E-01   0.65725000E-01    1.0000000        0.0000000
  2147.8900       0.19116000       0.19116000       0.11009914        1.1053763       0.48440000E-01   0.47475000E-01    1.0000000        0.0000000
  2147.9900       0.19632700       0.19632700       0.11023302        1.1056246       0.51925000E-01   0.25675000E-01    1.0000000        0.0000000
  2148.0900       0.20154500       0.20154500       0.11036690        1.1058728       0.53575000E-01   0.23975000E-01    1.0000000        0.0000000
  2148.1900       0.20704200       0.20704200       0.11050078        1.1061211       0.56720000E-01   0.13150000E-01    1.0000000        0.0000000
  2148.2900       0.21288900       0.21288900       0.11063466        1.1063694       0.56205000E-01  -0.12550000E-01    1.0000000        0.0000000
  2148.3900       0.21828300       0.21828300       0.11076854        1.1066177       0.54210000E-01   0.43825000E-01    1.0000000        0.0000000
  2148.4900       0.22373100       0.22373100       0.11090242        1.1068659       0.64970000E-01   0.16872500        1.0000000        0.0000000
  2148.5900       0.23127700       0.23127700       0.11103630        1.1071142       0.87955000E-01   0.10495000        1.0000000        0.0000000
  2148.6900       0.24132200       0.24132200       0.11117018        1.1073625       0.85960000E-01  -0.48600000E-01    1.0000000        0.0000000
  2148.7900       0.24846900       0.24846900       0.11130406        1.1076107       0.78235000E-01   0.44000000E-02    1.0000000        0.0000000
  2148.8900       0.25696900       0.25696900       0.11143794        1.1078590       0.86840000E-01   0.91175000E-01    1.0000000        0.0000000
  2148.9900       0.26583700       0.26583700       0.11157183        1.1081073       0.96470000E-01   0.11605000        1.0000000        0.0000000
  2149.0900       0.27626300       0.27626300       0.11170571        1.1083556       0.11005000       0.16532500        1.0000000        0.0000000
  2149.1900       0.28784700       0.28784700       0.11183959        1.1086038       0.12953500       0.12292500        1.0000000        0.0000000
  2149.2900       0.30217000       0.30217000       0.11197347        1.1088521       0.13463500       0.10810000        1.0000000        0.0000000
  2149.3900       0.31477400       0.31477400       0.11210735        1.1091004       0.15115500       0.15500000        1.0000000        0.0000000
  2149.4900       0.33240100       0.33240100       0.11224123        1.1093487       0.16563500       0.91500000E-01    1.0000000        0.0000000
  2149.5900       0.34790100       0.34790100       0.11237511        1.1095969       0.16945500       0.16170000        1.0000000        0.0000000
  2149.6900       0.36629200       0.36629200       0.11250899        1.1098452       0.19797500       0.33767500        1.0000000        0.0000000
  2149.7900       0.38749600       0.38749600       0.11264287        1.1100935       0.23699000       0.33705000        1.0000000        0.0000000
  2149.8900       0.41369000       0.41369000       0.11277675        1.1103417       0.26538500       0.34512500        1.0000000        0.0000000
  2149.9900       0.44057300       0.44057300       0.11291063        1.1105900       0.30601500       0.43832500        1.0000000        0.0000000
  2150.0900       0.47489300       0.47489300       0.11304451        1.1108383       0.35305000       0.59827500        1.0000000        0.0000000
  2150.1900       0.51118300       0.51118300       0.11317839        1.1110866       0.42567000       0.78097500        1.0000000        0.0000000
  2150.2900       0.56002700       0.56002700       0.11331227        1.1113348       0.50924500       0.92845000        1.0000000        0.0000000
  2150.3900       0.61303200       0.61303200       0.11344615        1.1115831       0.61136000        1.2556000        1.0000000        0.0000000
  2150.4900       0.68229900       0.68229900       0.11358003        1.1118314       0.76036500        1.5519500        1.0000000        0.0000000
  2150.5900       0.76510500       0.76510500       0.11371391        1.1120797       0.92175000        1.6036500        1.0000000        0.0000000
  2150.6900       0.86664900       0.86664900       0.11384779        1.1123279        1.0810950        1.4500250        1.0000000        0.0000000
  2150.7900       0.98132400       0.98132400       0.11398167        1.1125762        1.2117550        1.2081750        1.0000000        0.0000000
  2150.8900        1.1090000        1.1090000       0.11411555        1.1128245        1.3227300       0.50322500        1.0000000        0.0000000
  2150.9900        1.2458700        1.2458700       0.11424943        1.1130728        1.3124000      -0.97650000E-01    1.0000000        0.0000000
  2151.0900        1.3714800        1.3714800       0.11438331        1.1133210        1.3032000       0.44250000E-01    1.0000000        0.0000000
  2151.1900        1.5065100        1.5065100       0.11451720        1.1135693        1.3212500       0.36275000        1.0000000        0.0000000
  2151.2900        1.6357300        1.6357300       0.11465108        1.1138176        1.3757500        1.1947500        1.0000000        0.0000000
  2151.3900        1.7816600        1.7816600       0.11478496        1.1140658        1.5602000        2.4622500        1.0000000        0.0000000
  2151.4900        1.9477700        1.9477700       0.11491884        1.1143141        1.8682000        3.4022500        1.0000000        0.0000000
  2151.5900        2.1553000        2.1553000       0.11505272        1.1145624        2.2406500        3.5660000        1.0000000        0.0000000
  2151.6900        2.3959000        2.3959000       0.11518660        1.1148107        2.5814000        2.7540000        1.0000000        0.0000000
  2151.7900        2.6715800        2.6715800       0.11532048        1.1150589        2.7914500       0.74150000        1.0000000        0.0000000
  2151.8900        2.9541900        2.9541900       0.11545436        1.1153072        2.7297000       -1.9682500        1.0000000        0.0000000
  2151.9900        3.2175200        3.2175200       0.11558824        1.1155555        2.3978000       -3.8925000        1.0000000        0.0000000
  2152.0900        3.4337500        3.4337500       0.11572212        1.1158038        1.9512000       -4.9567500        1.0000000        0.0000000
  2152.1900        3.6077600        3.6077600       0.11585600        1.1160520        1.4064500       -5.3520000        1.0000000        0.0000000
  2152.2900        3.7150400        3.7150400       0.11598988        1.1163003       0.88080000       -4.0052500        1.0000000        0.0000000
  2152.3900        3.7839200        3.7839200       0.11612376        1.1165486       0.60540000       -3.5855000        1.0000000        0.0000000
  2152.4900        3.8361200        3.8361200       0.11625764        1.1167968       0.16370000       -3.8270000        1.0000000        0.0000000
  2152.5900        3.8166600        3.8166600       0.11639152        1.1170451      -0.16000000       -1.6745000        1.0000000        0.0000000
  2152.6900        3.8041200        3.8041200       0.11652540        1.1172934      -0.17120000      -0.74175000        1.0000000        0.0000000
  2152.7900        3.7824200        3.7824200       0.11665928        1.1175417      -0.30835000       -2.9205000        1.0000000        0.0000000
  2152.8900        3.7424500        3.7424500       0.11679316        1.1177899      -0.75530000       -3.7300000        1.0000000        0.0000000
  2152.9900        3.6313600        3.6313600       0.11692704        1.1180382       -1.0543500       -1.6162500        1.0000000        0.0000000
  2153.0900        3.5315800        3.5315800       0.11706092        1.1182865       -1.0785500      -0.90425000        1.0000000        0.0000000
  2153.1900        3.4156500        3.4156500       0.11719480        1.1185348       -1.2352000      -0.85975000        1.0000000        0.0000000
  2153.2900        3.2845400        3.2845400       0.11732868        1.1187830       -1.2505000      -0.26050000        1.0000000        0.0000000
  2153.3900        3.1655500        3.1655500       0.11746257        1.1190313       -1.2873000      -0.41925000        1.0000000        0.0000000
  2153.4900        3.0270800        3.0270800       0.11759645        1.1192796       -1.3343500       0.57250000E-01    1.0000000        0.0000000
  2153.5900        2.8986800        2.8986800       0.11773033        1.1195278       -1.2758500        1.0092500        1.0000000        0.0000000
  2153.6900        2.7719100        2.7719100       0.11786421        1.1197761       -1.1325000        1.0777500        1.0000000        0.0000000
  2153.7900        2.6721800        2.6721800       0.11799809        1.1200244       -1.0603000       0.11225000        1.0000000        0.0000000
  2153.8900        2.5598500        2.5598500       0.11813197        1.1202727       -1.1100500       0.21825000        1.0000000        0.0000000
  2153.9900        2.4501700        2.4501700       0.11826585        1.1205209       -1.0166500       0.90000000        1.0000000        0.0000000
  2154.0900        2.3565200        1.2627214       0.11839973        1.1207692      -0.93005000       0.82025000        1.0000000        1.0913251
  2154.1900        2.2641600        1.2735054       0.11853361        1.1210175      -0.85260000       0.80975000        1.0000000       0.98841433
  2154.2900        2.1860000        1.2841414       0.11866749        1.1212658      -0.76810000       0.77375000        1.0000000       0.89981914
  2154.3900        2.1105400        1.2946302       0.11880137        1.1215140      -0.69785000       0.38150000        1.0000000       0.81406472
  2154.4900        2.0464300        1.3049726       0.11893525        1.1217623      -0.69180000       0.56325000        1.0000000       0.73978071
  2154.5900        1.9721800        1.3151693       0.11906913        1.1220106      -0.58520000        1.0817500        1.0000000       0.65552491
  2154.6900        1.9293900        1.3252213       0.11920301        1.1222589      -0.47545000       0.26300000        1.0000000       0.60280246
  2154.7900        1.8770900        1.3351292       0.11933689        1.1225071      -0.53260000       0.58750000E-01    1.0000000       0.54073520
  2154.8900        1.8228700        1.3448939       0.11947077        1.1227554      -0.46370000       0.84125000        1.0000000       0.47689518
  2154.9900        1.7843500        1.3545162       0.11960465        1.1230037      -0.36435000       0.61425000        1.0000000       0.42886176
  2155.0900        1.7500000        1.3639969       0.11973853        1.1232519      -0.34085000       0.21925000        1.0000000       0.38513022
  2155.1900        1.7161800        1.3733367       0.11987241        1.1235002      -0.32050000       0.37000000        1.0000000       0.34206799
  2155.2900        1.6859000        1.3825365       0.12000629        1.1237485      -0.26685000       0.78975000        1.0000000       0.30267747
  2155.3900        1.6628100        1.3915971       0.12014017        1.1239968      -0.16255000       0.48425000        1.0000000       0.27059962
  2155.4900        1.6533900        1.4005192       0.12027405        1.1242450      -0.17000000       0.46250000E-01    1.0000000       0.25229898
  2155.5900        1.6288100        1.4093037       0.12040794        1.1244933      -0.15330000       0.34350000        1.0000000       0.21900995
  2155.6900        1.6227300        1.4179513       0.12054182        1.1247416      -0.10130000       0.27475000        1.0000000       0.20431562
  2155.7900        1.6085500        1.4264629       0.12067570        1.1249899      -0.98350000E-01   0.30250000        1.0000000       0.18167535
  2155.8900        1.6030600        1.4348392       0.12080958        1.1252381      -0.40800000E-01   0.96250000E-01    1.0000000       0.16784038
  2155.9900        1.6003900        1.4430811       0.12094346        1.1254864      -0.79100000E-01  -0.27000000        1.0000000       0.15695318
  2156.0900        1.5872400        1.4511893       0.12107734        1.1257347      -0.94800000E-01   0.31250000E-01    1.0000000       0.13574303
  2156.1900        1.5814300        1.4591647       0.12121122        1.1259829      -0.72850000E-01  -0.20500000E-01    1.0000000       0.12198885
  2156.2900        1.5726700        1.4670080       0.12134510        1.1262312      -0.98900000E-01  -0.31350000        1.0000000       0.10542310
  2156.3900        1.5616500        1.4747200       0.12147898        1.1264795      -0.13555000       0.10075000        1.0000000       0.86733437E-01
  2156.4900        1.5455600        1.4823015       0.12161286        1.1267278      -0.78750000E-01   0.24375000        1.0000000       0.63115413E-01
  2156.5900        1.5459000        1.4897534       0.12174674        1.1269760      -0.86800000E-01  -0.35925000        1.0000000       0.56019615E-01
  2156.6900        1.5282000        1.4970764       0.12188062        1.1272243      -0.15060000       0.93250000E-01    1.0000000       0.31053198E-01
  2156.7900        1.5157800        1.5042713       0.12201450        1.1274726      -0.68150000E-01   0.35850000        1.0000000       0.11482631E-01
  2156.8900        1.5145700        1.5113390       0.12214838        1.1277209      -0.78900000E-01  -0.39900000        1.0000000       0.32237094E-02
  2156.9900        1.5000000        1.5182801       0.12228226        1.1279691      -0.14795000      -0.37150000        1.0000000      -0.18238800E-01
  2157.0900        1.4849800        1.5250956       0.12241614        1.1282174      -0.15320000      -0.11025000        1.0000000      -0.40024887E-01
  2157.1900        1.4693600        1.5317862       0.12255002        1.1284657      -0.17000000       0.13600000        1.0000000      -0.62285007E-01
  2157.2900        1.4509800        1.5383527       0.12268390        1.1287139      -0.12600000       0.53125000        1.0000000      -0.87175071E-01
  2157.3900        1.4441600        1.5447958       0.12281778        1.1289622      -0.63750000E-01   0.20875000        1.0000000      -0.10040826
  2157.4900        1.4382300        1.5511165       0.12295166        1.1292105      -0.84250000E-01  -0.15250000E-01    1.0000000      -0.11263123
  2157.5900        1.4273100        1.5573155       0.12308554        1.1294588      -0.66800000E-01   0.17200000        1.0000000      -0.12971149
  2157.6900        1.4248700        1.5633935       0.12321942        1.1297070      -0.49850000E-01  -0.71000000E-01    1.0000000      -0.13821029
  2157.7900        1.4173400        1.5693515       0.12335331        1.1299553      -0.81000000E-01  -0.87250000E-01    1.0000000      -0.15166774
  2157.8900        1.4086700        1.5751901       0.12348719        1.1302036      -0.67300000E-01   0.18475000        1.0000000      -0.16614357
  2157.9900        1.4038800        1.5809103       0.12362107        1.1304519      -0.44050000E-01   0.10675000        1.0000000      -0.17662993
  2158.0900        1.3998600        1.5865127       0.12375495        1.1307001      -0.45950000E-01   0.21800000        1.0000000      -0.18623057
  2158.1900        1.3946900        1.5919981       0.12388883        1.1309484      -0.45000000E-03   0.46100000        1.0000000      -0.19686195
  2158.2900        1.3997700        1.5973675       0.12402271        1.1311967       0.46250000E-01   0.28900000        1.0000000      -0.19715065
  2158.3900        1.4039400        1.6026215       0.12415659        1.1314450       0.57350000E-01  -0.73750000E-01    1.0000000      -0.19823222
  2158.4900        1.4112400        1.6077610       0.12429047        1.1316932       0.31500000E-01  -0.14325000        1.0000000      -0.19607659
  2158.5900        1.4102400        1.6127868       0.12442435        1.1319415       0.28700000E-01   0.15300000        1.0000000      -0.20208872
  2158.6900        1.4169800        1.6176996       0.12455823        1.1321898       0.62100000E-01   0.16550000        1.0000000      -0.20026566
  2158.7900        1.4226600        1.6225002       0.12469211        1.1324380       0.61800000E-01   0.57250000E-01    1.0000000      -0.19938832
  2158.8900        1.4293400        1.6271896       0.12482599        1.1326863       0.73550000E-01   0.23225000        1.0000000      -0.19740215
  2158.9900        1.4373700        1.6317683       0.12495987        1.1329346       0.10825000       0.20700000        1.0000000      -0.19395873
  2159.0900        1.4509900        1.6362374       0.12509375        1.1331829       0.11495000       0.14200000        1.0000000      -0.18482845
  2159.1900        1.4603600        1.6405974       0.12522763        1.1334311       0.13665000       0.71000000E-01    1.0000000      -0.17982986
  2159.2900        1.4783200        1.6448494       0.12536151        1.1336794       0.12915000      -0.17725000        1.0000000      -0.16615277
  2159.3900        1.4861900        1.6489939       0.12549539        1.1339277       0.10120000       0.11150000        1.0000000      -0.16243575
  2159.4900        1.4985600        1.6530319       0.12562927        1.1341760       0.15145000       0.46075000        1.0000000      -0.15412258
  2159.5900        1.5164800        1.6569641       0.12576315        1.1344242       0.19335000      -0.17175000        1.0000000      -0.14016643
  2159.6900        1.5372300        1.6607914       0.12589703        1.1346725       0.11710000      -0.41975000        1.0000000      -0.12328195
  2159.7900        1.5399000        1.6645144       0.12603091        1.1349208       0.10940000       0.19125000        1.0000000      -0.12433265
  2159.8900        1.5591100        1.6681342       0.12616480        1.1351690       0.15535000       0.36700000        1.0000000      -0.10877761
  2159.9900        1.5709700        1.6716513       0.12629868        1.1354173       0.18280000       0.13350000        1.0000000      -0.10045360
  2160.0900        1.5956700        1.6750666       0.12643256        1.1356656       0.18205000      -0.27875000        1.0000000      -0.79217069E-01
  2160.1900        1.6073800        1.6783810       0.12656644        1.1359139       0.12705000      -0.11900000        1.0000000      -0.70840410E-01
  2160.2900        1.6210800        1.6815951       0.12670032        1.1361621       0.15825000       0.31825000        1.0000000      -0.60378288E-01
  2160.3900        1.6390300        1.6847099       0.12683420        1.1364104       0.19070000      -0.15000000E-01    1.0000000      -0.45576610E-01
  2160.4900        1.6592200        1.6877261       0.12696808        1.1366587       0.15525000      -0.15300000        1.0000000      -0.28441625E-01
  2160.9900        1.7321800        1.7013559       0.12763748        1.1379000       0.98900000E-01  -0.16772000        1.0000000       0.30754347E-01
  2161.4900        1.7581200        1.7126405       0.12830688        1.1391414      -0.12470000E-01  -0.19397000        1.0000000       0.45376688E-01
  2161.9900        1.7197100        1.7216793       0.12897628        1.1403828      -0.95070000E-01  -0.93750000E-01    1.0000000      -0.19647991E-02
  2162.4900        1.6630500        1.7285719       0.12964569        1.1416241      -0.10622000       0.33200000E-02    1.0000000      -0.65373749E-01
  2162.9900        1.6134900        1.7334181       0.13031509        1.1428655      -0.91750000E-01   0.35910000E-01    1.0000000      -0.11965687
  2163.4900        1.5713000        1.7363173       0.13098449        1.1441069      -0.70310000E-01   0.55260000E-01    1.0000000      -0.16464417
  2163.9900        1.5431800        1.7373693       0.13165389        1.1453482      -0.36490000E-01   0.64440000E-01    1.0000000      -0.19375018
  2164.4900        1.5348100        1.7366736       0.13232330        1.1465896      -0.58700000E-02   0.70340000E-01    1.0000000      -0.20140712
  2164.9900        1.5373100        1.7343298       0.13299270        1.1478310       0.33850000E-01   0.92580000E-01    1.0000000      -0.19657431
  2165.4900        1.5686600        1.7304376       0.13366210        1.1490723       0.86710000E-01   0.11099000        1.0000000      -0.16141179
  2165.9900        1.6240200        1.7250966       0.13433150        1.1503137       0.14484000       0.83790000E-01    1.0000000      -0.10084799
  2166.4900        1.7135000        1.7184063       0.13500091        1.1515551       0.17050000      -0.30800000E-02    1.0000000      -0.48951813E-02
  2166.9900        1.7945200        1.7104664       0.13567031        1.1527964       0.14176000      -0.92510000E-01    1.0000000       0.83863556E-01
  2167.4900        1.8552600        1.7013765       0.13633971        1.1540378       0.77990000E-01  -0.14252000        1.0000000       0.15353556
  2167.9900        1.8725100        1.6912361       0.13700911        1.1552792      -0.76000000E-03  -0.12602000        1.0000000       0.18086394
  2168.4900        1.8545000        1.6801450       0.13767851        1.1565205      -0.48030000E-01  -0.54680000E-01    1.0000000       0.17396068
  2168.9900        1.8244800        1.6682028       0.13834792        1.1577619      -0.55440000E-01   0.18300000E-01    1.0000000       0.15592383
  2169.4900        1.7990600        1.6555089       0.13901732        1.1590033      -0.29730000E-01   0.49460000E-01    1.0000000       0.14322645
  2169.9900        1.7947500        1.6421631       0.13968672        1.1602446      -0.59800000E-02   0.20440000E-01    1.0000000       0.15224180
  2170.4900        1.7930800        1.6282650       0.14035612        1.1614860      -0.92900000E-02  -0.27860000E-01    1.0000000       0.16444228
  2170.9900        1.7854600        1.6139142       0.14102553        1.1627273      -0.33840000E-01  -0.43900000E-01    1.0000000       0.17115792
  2171.4900        1.7592400        1.5992102       0.14169493        1.1639687      -0.53190000E-01  -0.37760000E-01    1.0000000       0.15966794
  2171.9900        1.7322700        1.5842527       0.14236433        1.1652101      -0.71600000E-01  -0.26090000E-01    1.0000000       0.14768258
  2172.4900        1.6876400        1.5691413       0.14303373        1.1664514      -0.79280000E-01  -0.13800000E-02    1.0000000       0.11823072
  2172.9900        1.6529900        1.5539757       0.14370314        1.1676928      -0.72980000E-01   0.13140000E-01    1.0000000       0.98790441E-01
  2173.4900        1.6146600        1.5388553       0.14437254        1.1689342      -0.66140000E-01   0.25600000E-02    1.0000000       0.75633264E-01
  2173.9900        1.5868500        1.5238799       0.14504194        1.1701755      -0.70420000E-01  -0.11000000E-01    1.0000000       0.62827687E-01
  2174.4900        1.5442400        1.5091491       0.14571134        1.1714169      -0.77140000E-01   0.85100000E-02    1.0000000       0.35011582E-01
  2174.9900        1.5097100        1.4947623       0.14638074        1.1726583      -0.61910000E-01   0.25050000E-01    1.0000000       0.14913917E-01
  2175.4900        1.4823300        1.4807911       0.14705015        1.1738996      -0.52090000E-01   0.21640000E-01    1.0000000       0.15354356E-02
  2175.9900        1.4576200        1.4672399       0.14771955        1.1751410      -0.40270000E-01   0.26160000E-01    1.0000000      -0.95981375E-02
  2176.4900        1.4420600        1.4541033       0.14838895        1.1763824      -0.25930000E-01   0.20380000E-01    1.0000000      -0.12016041E-01
  2176.9900        1.4316900        1.4413758       0.14905835        1.1776237      -0.19890000E-01   0.57600000E-02    1.0000000      -0.96639055E-02
  2177.4900        1.4221700        1.4290521       0.14972776        1.1788651      -0.20170000E-01  -0.30000000E-04    1.0000000      -0.68665011E-02
  2177.9900        1.4115200        1.4171266       0.15039716        1.1801065      -0.19920000E-01  -0.59300000E-02    1.0000000      -0.55939356E-02
  2178.4900        1.4022500        1.4055940       0.15106656        1.1813478      -0.26100000E-01  -0.15940000E-01    1.0000000      -0.33364701E-02
  2178.9900        1.3854200        1.3944489       0.15173596        1.1825892      -0.35860000E-01  -0.12580000E-01    1.0000000      -0.90084729E-02
  2179.4900        1.3663900        1.3836858       0.15240537        1.1838305      -0.38680000E-01  -0.26100000E-02    1.0000000      -0.17256650E-01
  2179.9900        1.3467400        1.3732992       0.15307477        1.1850719      -0.38470000E-01   0.10190000E-01    1.0000000      -0.26499160E-01
  2180.4900        1.3279200        1.3632838       0.15374417        1.1863133      -0.28490000E-01   0.64900000E-02    1.0000000      -0.35283866E-01
  2180.9900        1.3182500        1.3536342       0.15441357        1.1875546      -0.31980000E-01  -0.80700000E-02    1.0000000      -0.35304168E-01
  2181.4900        1.2959400        1.3443448       0.15508297        1.1887960      -0.36560000E-01  -0.50700000E-02    1.0000000      -0.48295377E-01
  2181.9900        1.2816900        1.3354104       0.15575238        1.1900374      -0.37050000E-01   0.13450000E-01    1.0000000      -0.53598887E-01
  2182.4900        1.2588900        1.3268253       0.15642178        1.1912787      -0.23110000E-01   0.22380000E-01    1.0000000      -0.67781721E-01
  2182.9900        1.2585800        1.3185844       0.15709118        1.1925201      -0.14670000E-01  -0.40200000E-02    1.0000000      -0.59868660E-01
  2183.4900        1.2442200        1.3106820       0.15776058        1.1937615      -0.27130000E-01  -0.88600000E-02    1.0000000      -0.66311655E-01
  2183.9900        1.2314500        1.3031127       0.15842999        1.1950028      -0.23530000E-01   0.14520000E-01    1.0000000      -0.71500662E-01
  2184.4900        1.2206900        1.2958712       0.15909939        1.1962442      -0.12610000E-01   0.12710000E-01    1.0000000      -0.75011214E-01
  2184.9900        1.2188400        1.2889520       0.15976879        1.1974856      -0.10820000E-01  -0.20100000E-02    1.0000000      -0.69953500E-01
  2185.4900        1.2098700        1.2823498       0.16043819        1.1987269      -0.14620000E-01  -0.10320000E-01    1.0000000      -0.72315855E-01
  2185.9900        1.2042200        1.2760589       0.16110759        1.1999683      -0.21140000E-01  -0.43600000E-02    1.0000000      -0.71676473E-01
  2186.4900        1.1887300        1.2700741       0.16177700        1.2012097      -0.18980000E-01   0.11080000E-01    1.0000000      -0.81160180E-01
  2186.9900        1.1852400        1.2643899       0.16244640        1.2024510      -0.10060000E-01   0.10240000E-01    1.0000000      -0.78970949E-01
  2187.4900        1.1786700        1.2590009       0.16311580        1.2036924      -0.87400000E-02  -0.16800000E-02    1.0000000      -0.80149263E-01
  2187.9900        1.1765000        1.2539017       0.16378520        1.2049338      -0.11740000E-01   0.60000000E-03    1.0000000      -0.77226624E-01
  2188.4900        1.1669300        1.2490867       0.16445461        1.2061751      -0.81400000E-02   0.14830000E-01    1.0000000      -0.81970930E-01
  2188.9900        1.1683600        1.2445507       0.16512401        1.2074165       0.30900000E-02   0.12980000E-01    1.0000000      -0.76018377E-01
  2189.4900        1.1700200        1.2402881       0.16579341        1.2086578       0.48400000E-02   0.37000000E-02    1.0000000      -0.70109196E-01
  2189.9900        1.1732000        1.2362936       0.16646281        1.2098992       0.67900000E-02   0.44800000E-02    1.0000000      -0.62950887E-01
  2190.4900        1.1768100        1.2325616       0.16713222        1.2111406       0.93200000E-02   0.60200000E-02    1.0000000      -0.55625572E-01
  2190.9900        1.1825200        1.2290869       0.16780162        1.2123819       0.12810000E-01   0.56900000E-02    1.0000000      -0.46461612E-01
  2191.4900        1.1896200        1.2258639       0.16847102        1.2136233       0.15010000E-01   0.34400000E-02    1.0000000      -0.36161986E-01
  2191.9900        1.1975300        1.2228873       0.16914042        1.2148647       0.16250000E-01   0.84000000E-03    1.0000000      -0.25299969E-01
  2192.4900        1.2058700        1.2201516       0.16980982        1.2161060       0.15850000E-01  -0.11700000E-02    1.0000000      -0.14249284E-01
  2192.9900        1.2133800        1.2176513       0.17047923        1.2173474       0.15080000E-01  -0.15300000E-02    1.0000000      -0.42616697E-02
  2193.4900        1.2209500        1.2153811       0.17114863        1.2185888       0.14320000E-01  -0.24600000E-02    1.0000000       0.55562780E-02
  2193.9900        1.2277000        1.2133356       0.17181803        1.2198301       0.12620000E-01  -0.40000000E-04    1.0000000       0.14331964E-01
  2194.4900        1.2335700        1.2115092       0.17248743        1.2210715       0.14280000E-01   0.13000000E-02    1.0000000       0.22010938E-01
  2194.9900        1.2419800        1.2098966       0.17315684        1.2223129       0.13920000E-01   0.16700000E-02    1.0000000       0.32010881E-01
  2195.4900        1.2474900        1.2084923       0.17382624        1.2235542       0.15950000E-01   0.76400000E-02    1.0000000       0.38909511E-01
  2195.9900        1.2579300        1.2072910       0.17449564        1.2247956       0.21560000E-01  -0.72000000E-03    1.0000000       0.50524536E-01
  2196.4900        1.2690500        1.2062871       0.17516504        1.2260370       0.15230000E-01  -0.17080000E-01    1.0000000       0.62620981E-01
  2196.9900        1.2731600        1.2054753       0.17583445        1.2272783       0.44800000E-02  -0.67000000E-02    1.0000000       0.67531651E-01
  2197.4900        1.2735300        1.2048501       0.17650385        1.2285197       0.85300000E-02   0.36800000E-02    1.0000000       0.68524567E-01
  2197.9900        1.2816900        1.2044062       0.17717325        1.2297610       0.81600000E-02  -0.49100000E-02    1.0000000       0.77109070E-01
  2198.4900        1.2816900        1.2041380       0.17784265        1.2310024       0.36200000E-02  -0.35200000E-02    1.0000000       0.77376643E-01
  2198.9900        1.2853100        1.2040402       0.17851205        1.2322438       0.46400000E-02  -0.42000000E-02    1.0000000       0.81086063E-01
  2199.4900        1.2863300        1.2041073       0.17918146        1.2334851      -0.58000000E-03  -0.99900000E-02    1.0000000       0.82036811E-01
  2199.9900        1.2847300        1.2043338       0.17985086        1.2347265      -0.53500000E-02  -0.12146667E-01    1.0000000       0.80214346E-01
  2200.4900        1.2809800        1.2047145       0.18052026        1.2359679      -0.12726667E-01  -0.66233333E-02    1.0000000       0.76093021E-01
  2201.4900        1.2656400        1.2059164       0.18185907        1.2384506      -0.15285000E-01  -0.29391667E-02    1.0000000       0.59588592E-01
  2202.4900        1.2504100        1.2076693       0.18319787        1.2409333      -0.18605000E-01  -0.94000000E-03    1.0000000       0.42644003E-01
  2203.4900        1.2284300        1.2099301       0.18453668        1.2434161      -0.17165000E-01   0.52975000E-02    1.0000000       0.18458089E-01
  2204.4900        1.2160800        1.2126551       0.18587548        1.2458988      -0.80100000E-02   0.64850000E-02    1.0000000       0.34171254E-02
  2205.4900        1.2124100        1.2158011       0.18721428        1.2483815      -0.41950000E-02   0.46150000E-02    1.0000000      -0.33834186E-02
  2206.4900        1.2076900        1.2193245       0.18855309        1.2508643       0.12200000E-02   0.56275000E-02    1.0000000      -0.11608221E-01
  2207.4900        1.2148500        1.2231820       0.18989189        1.2533470       0.70600000E-02   0.31500000E-03    1.0000000      -0.83132013E-02
  2208.4900        1.2218100        1.2273302       0.19123070        1.2558297       0.18500000E-02  -0.26700000E-02    1.0000000      -0.55077232E-02
  2209.4900        1.2185500        1.2317256       0.19256950        1.2583124       0.17200000E-02   0.32775000E-02    1.0000000      -0.13145808E-01
  2210.4900        1.2252500        1.2363248       0.19390831        1.2607952       0.84050000E-02   0.75000000E-03    1.0000000      -0.11049771E-01
  2211.4900        1.2353600        1.2410844       0.19524711        1.2632779       0.32200000E-02  -0.34775000E-02    1.0000000      -0.57114810E-02
  2212.4900        1.2316900        1.2459610       0.19658592        1.2657606       0.14500000E-02   0.20225000E-02    1.0000000      -0.14238745E-01
  2213.4900        1.2382600        1.2509112       0.19792472        1.2682434       0.72650000E-02   0.84000000E-03    1.0000000      -0.12622562E-01
  2214.4900        1.2462200        1.2558915       0.19926353        1.2707261       0.31300000E-02  -0.12900000E-02    1.0000000      -0.96495994E-02
  2215.4900        1.2445200        1.2608585       0.20060233        1.2732088       0.46850000E-02   0.29350000E-02    1.0000000      -0.16301550E-01
  2216.4900        1.2555900        1.2657688       0.20194113        1.2756915       0.90000000E-02   0.15475000E-02    1.0000000      -0.10155816E-01
  2217.4900        1.2625200        1.2705791       0.20327994        1.2781743       0.77800000E-02   0.47750000E-03    1.0000000      -0.80408385E-02
  2218.4900        1.2711500        1.2752458       0.20461874        1.2806570       0.99550000E-02  -0.24200000E-02    1.0000000      -0.40865050E-02
  2219.4900        1.2824300        1.2797255       0.20595755        1.2831397       0.29400000E-02  -0.51275000E-02    1.0000000       0.26983559E-02
  2220.4900        1.2770300        1.2839749       0.20729635        1.2856225      -0.30000000E-03   0.92000000E-03    1.0000000      -0.69292238E-02
  2221.4900        1.2818300        1.2879506       0.20863516        1.2881052       0.47800000E-02   0.21025000E-02    1.0000000      -0.61067106E-02
  2222.4900        1.2865900        1.2916090       0.20997396        1.2905879       0.39050000E-02   0.17000000E-03    1.0000000      -0.50076285E-02
  2223.4900        1.2896400        1.2949068       0.21131277        1.2930707       0.51200000E-02   0.49000000E-03    1.0000000      -0.52548817E-02
  2224.4900        1.2968300        1.2978006       0.21265157        1.2955534       0.48850000E-02  -0.81000000E-03    1.0000000      -0.96837958E-03
  2225.4900        1.2994100        1.3002469       0.21399038        1.2980361       0.35000000E-02  -0.18550000E-02    1.0000000      -0.83501583E-03
  2226.4900        1.3038300        1.3022024       0.21532918        1.3005188       0.11750000E-02  -0.18775000E-02    1.0000000       0.16239432E-02
  2227.4900        1.3017600        1.3036236       0.21666799        1.3030016      -0.25500000E-03  -0.62250000E-03    1.0000000      -0.18593459E-02
  2228.4900        1.3033200        1.3044670       0.21800679        1.3054843      -0.70000000E-04  -0.20975000E-02    1.0000000      -0.11444487E-02
  2229.4900        1.3016200        1.3046894       0.21934559        1.3079670      -0.44500000E-02  -0.21975000E-02    1.0000000      -0.30624650E-02
  2230.4900        1.2944200        1.3042472       0.22068440        1.3104498      -0.44650000E-02   0.13525000E-02    1.0000000      -0.98050097E-02
  2231.4900        1.2926900        1.3030971       0.22202320        1.3129325      -0.17450000E-02   0.13250000E-02    1.0000000      -0.10383571E-01
  2232.4900        1.2909300        1.3011956       0.22336201        1.3154152      -0.18150000E-02  -0.35125000E-02    1.0000000      -0.10242391E-01
  2233.4900        1.2890600        1.2984993       0.22470081        1.3178980      -0.87700000E-02  -0.24400000E-02    1.0000000      -0.94179708E-02
  2234.4900        1.2733900        1.2949648       0.22603962        1.3203807      -0.66950000E-02   0.52350000E-02    1.0000000      -0.21526032E-01
  2235.4900        1.2756700        1.2905487       0.22737842        1.3228634       0.17000000E-02   0.37825000E-02    1.0000000      -0.14845053E-01
  2236.4900        1.2767900        1.2852075       0.22871723        1.3253461       0.87000000E-03  -0.14275000E-02    1.0000000      -0.83985007E-02
  2237.4900        1.2774100        1.2788979       0.23005603        1.3278289      -0.11550000E-02  -0.19000000E-02    1.0000000      -0.14845476E-02
  2238.4900        1.2744800        1.2715764       0.23139484        1.3303116      -0.29300000E-02  -0.17750000E-02    1.0000000       0.28970227E-02
