# XDI/1.0 Athena/0.9.26
# Element.edge:                  K
# Element.symbol:                P
# Column.1:                      energy eV
# Column.2:                      xmu
# Column.3:                      bkg
# Column.4:                      pre_edge
# Column.5:                      post_edge
# Column.6:                      der
# Column.7:                      sec
# Column.8:                      i0
# Column.9:                      chi(e)
# Athena.e0:                     2152
# Athena.eshift:                 0.46
# Athena.rbkg:                   1.0
# Athena.importance:             1
# Athena.standard:               None
# Athena.bkg_kweight:            2
# Athena.edge_step:              0.3535130
# Athena.fixed_step:             no
# Athena.pre_edge_range:         -18.400 -8.000
# Athena.pre_edge_line:          5.542368 - 0.00249411 * E
# Athena.normalization_range:    25.000 65.600
# Athena.post_edge_polynomial:   4.531100 - 0.00185992 * E + 0 * E^2 + 0 * E^3
# Athena.spline_range_energy:    0.000 85.601
# Athena.clamps:                 0 24
# Athena.spline_range_k:         0.000 4.740
# Athena.kweight:                2
# Athena.window:                 hanning
# Athena.phase_correction:       no
# Athena.k_range:                2.740 3.000
# Athena.dk:                     1
# Athena.r_range:                1 3
# Athena.dr:                     0.0
# Athena.window:                 hanning
# Athena.plot_multiplier:        1
# Athena.y_offset:               0
# ///
#------------------------
#   e         xmu        bkg        pre_edge        post_edge        der        sec        i0        chie
  2125.4600       0.23064500       0.23064500       0.24122713       0.57790870      -0.52850000E-03  -0.22350000E-03    1.0000000        0.0000000
  2127.4600       0.22958800       0.22958800       0.23623890       0.57418886      -0.97550000E-03  -0.16687500E-04    1.0000000        0.0000000
  2129.4600       0.22674300       0.22674300       0.23125067       0.57046901      -0.59525000E-03  -0.50000000E-04    1.0000000        0.0000000
  2131.4600       0.22720700       0.22720700       0.22626244       0.56674917      -0.11755000E-02  -0.85656250E-03    1.0000000        0.0000000
  2133.4600       0.22204100       0.22204100       0.22127421       0.56302932      -0.40215000E-02  -0.66812500E-03    1.0000000        0.0000000
  2135.4600       0.21112100       0.21112100       0.21628598       0.55930948      -0.38480000E-02   0.81900000E-03    1.0000000        0.0000000
  2137.4600       0.20664900       0.20664900       0.21129775       0.55558963      -0.74550000E-03   0.92375000E-03    1.0000000        0.0000000
  2139.4600       0.20813900       0.20813900       0.20630952       0.55186979      -0.15300000E-03  -0.12483333E-03    1.0000000        0.0000000
  2140.4600       0.20619000       0.20619000       0.20381541       0.55000986      -0.11200000E-02  -0.44669444E-02    1.0000000        0.0000000
  2140.6600       0.20679500       0.20679500       0.20331659       0.54963788      -0.55133333E-02   0.38833333E-02    1.0000000        0.0000000
  2140.7600       0.20453600       0.20453600       0.20306718       0.54945189       0.45000000E-04   0.21966667E-01    1.0000000        0.0000000
  2140.8600       0.20680400       0.20680400       0.20281776       0.54926589      -0.11200000E-02   0.24950000E-01    1.0000000        0.0000000
  2140.9600       0.20431200       0.20431200       0.20256835       0.54907990       0.50350000E-02  -0.47250000E-02    1.0000000        0.0000000
  2141.0600       0.20781100       0.20781100       0.20231894       0.54889391      -0.20650000E-02  -0.14605000        1.0000000        0.0000000
  2141.1600       0.20389900       0.20389900       0.20206953       0.54870792      -0.24175000E-01  -0.59025000E-01    1.0000000        0.0000000
  2141.2600       0.20297600       0.20297600       0.20182012       0.54852193      -0.13870000E-01   0.11420000        1.0000000        0.0000000
  2141.3600       0.20112500       0.20112500       0.20157071       0.54833593      -0.13350000E-02   0.11247500        1.0000000        0.0000000
  2141.4600       0.20270900       0.20270900       0.20132130       0.54814994       0.86250000E-02  -0.40750000E-02    1.0000000        0.0000000
  2141.5600       0.20285000       0.20285000       0.20107188       0.54796395      -0.21500000E-02  -0.67925000E-01    1.0000000        0.0000000
  2141.6600       0.20227900       0.20227900       0.20082247       0.54777796      -0.49600000E-02  -0.40625000E-01    1.0000000        0.0000000
  2141.7600       0.20185800       0.20185800       0.20057306       0.54759196      -0.10275000E-01  -0.18725000E-01    1.0000000        0.0000000
  2141.8600       0.20022400       0.20022400       0.20032365       0.54740597      -0.87050000E-02   0.25725000E-01    1.0000000        0.0000000
  2141.9600       0.20011700       0.20011700       0.20007424       0.54721998      -0.51300000E-02   0.10250000E-01    1.0000000        0.0000000
  2142.0600       0.19919800       0.19919800       0.19982483       0.54703399      -0.66550000E-02   0.86500000E-02    1.0000000        0.0000000
  2142.1600       0.19878600       0.19878600       0.19957541       0.54684799      -0.34000000E-02  -0.96000000E-02    1.0000000        0.0000000
  2142.2600       0.19851800       0.19851800       0.19932600       0.54666200      -0.85750000E-02  -0.15825000E-01    1.0000000        0.0000000
  2142.3600       0.19707100       0.19707100       0.19907659       0.54647601      -0.65650000E-02   0.65275000E-01    1.0000000        0.0000000
  2142.4600       0.19720500       0.19720500       0.19882718       0.54629002       0.44800000E-02   0.55750000E-02    1.0000000        0.0000000
  2142.5600       0.19796700       0.19796700       0.19857777       0.54610403      -0.54500000E-02  -0.57175000E-01    1.0000000        0.0000000
  2142.6600       0.19611500       0.19611500       0.19832836       0.54591803      -0.69550000E-02   0.48650000E-01    1.0000000        0.0000000
  2142.7600       0.19657600       0.19657600       0.19807895       0.54573204       0.42800000E-02   0.39125000E-01    1.0000000        0.0000000
  2142.8600       0.19697100       0.19697100       0.19782953       0.54554605       0.87000000E-03  -0.55425000E-01    1.0000000        0.0000000
  2142.9600       0.19675000       0.19675000       0.19758012       0.54536006      -0.68050000E-02   0.68750000E-02    1.0000000        0.0000000
  2143.0600       0.19561000       0.19561000       0.19733071       0.54517406       0.22450000E-02   0.35250000E-01    1.0000000        0.0000000
  2143.1600       0.19719900       0.19719900       0.19708130       0.54498807       0.24500000E-03  -0.58800000E-01    1.0000000        0.0000000
  2143.2600       0.19565900       0.19565900       0.19683189       0.54480208      -0.95150000E-02  -0.20350000E-01    1.0000000        0.0000000
  2143.3600       0.19529600       0.19529600       0.19658248       0.54461609      -0.38250000E-02   0.47375000E-01    1.0000000        0.0000000
  2143.4600       0.19489400       0.19489400       0.19633307       0.54443010      -0.40000000E-04   0.57350000E-01    1.0000000        0.0000000
  2143.5600       0.19528800       0.19528800       0.19608365       0.54424410       0.76450000E-02  -0.82750000E-02    1.0000000        0.0000000
  2143.6600       0.19642300       0.19642300       0.19583424       0.54405811      -0.16950000E-02  -0.83025000E-01    1.0000000        0.0000000
  2143.7600       0.19494900       0.19494900       0.19558483       0.54387212      -0.89600000E-02  -0.81000000E-02    1.0000000        0.0000000
  2143.8600       0.19463100       0.19463100       0.19533542       0.54368613      -0.33150000E-02   0.65225000E-01    1.0000000        0.0000000
  2143.9600       0.19428600       0.19428600       0.19508601       0.54350013       0.40850000E-02   0.55350000E-01    1.0000000        0.0000000
  2144.0600       0.19544800       0.19544800       0.19483660       0.54331414       0.77550000E-02  -0.74525000E-01    1.0000000        0.0000000
  2144.1600       0.19583700       0.19583700       0.19458719       0.54312815      -0.10820000E-01  -0.71925000E-01    1.0000000        0.0000000
  2144.2600       0.19328400       0.19328400       0.19433777       0.54294216      -0.66300000E-02   0.77725000E-01    1.0000000        0.0000000
  2144.3600       0.19451100       0.19451100       0.19408836       0.54275616       0.47250000E-02   0.31600000E-01    1.0000000        0.0000000
  2144.4600       0.19422900       0.19422900       0.19383895       0.54257017      -0.31000000E-03  -0.54625000E-01    1.0000000        0.0000000
  2144.5600       0.19444900       0.19444900       0.19358954       0.54238418      -0.62000000E-02   0.46150000E-01    1.0000000        0.0000000
  2144.6600       0.19298900       0.19298900       0.19334013       0.54219819       0.89200000E-02   0.12272500        1.0000000        0.0000000
  2144.7600       0.19623300       0.19623300       0.19309072       0.54201220       0.18345000E-01  -0.62625000E-01    1.0000000        0.0000000
  2144.8600       0.19665800       0.19665800       0.19284130       0.54182620      -0.36050000E-02  -0.15885000        1.0000000        0.0000000
  2144.9600       0.19551200       0.19551200       0.19259189       0.54164021      -0.13425000E-01   0.44975000E-01    1.0000000        0.0000000
  2145.0600       0.19397300       0.19397300       0.19234248       0.54145422       0.53900000E-02   0.96500000E-01    1.0000000        0.0000000
  2145.1600       0.19659000       0.19659000       0.19209307       0.54126823       0.58750000E-02  -0.75950000E-01    1.0000000        0.0000000
  2145.2600       0.19514800       0.19514800       0.19184366       0.54108223      -0.98000000E-02  -0.18575000E-01    1.0000000        0.0000000
  2145.3600       0.19463000       0.19463000       0.19159425       0.54089624       0.21600000E-02   0.78600000E-01    1.0000000        0.0000000
  2145.4600       0.19558000       0.19558000       0.19134484       0.54071025       0.59200000E-02   0.29125000E-01    1.0000000        0.0000000
  2145.5600       0.19581400       0.19581400       0.19109542       0.54052426       0.79850000E-02  -0.18075000E-01    1.0000000        0.0000000
  2145.6600       0.19717700       0.19717700       0.19084601       0.54033827       0.23050000E-02  -0.21600000E-01    1.0000000        0.0000000
  2145.7600       0.19627500       0.19627500       0.19059660       0.54015227       0.36650000E-02   0.60500000E-02    1.0000000        0.0000000
  2145.8600       0.19791000       0.19791000       0.19034719       0.53996628       0.35150000E-02  -0.24925000E-01    1.0000000        0.0000000
  2145.9600       0.19697800       0.19697800       0.19009778       0.53978029      -0.13200000E-02  -0.29975000E-01    1.0000000        0.0000000
  2146.0600       0.19764600       0.19764600       0.18984837       0.53959430      -0.24800000E-02   0.42000000E-02    1.0000000        0.0000000
  2146.1600       0.19648200       0.19648200       0.18959896       0.53940830      -0.48000000E-03   0.49950000E-01    1.0000000        0.0000000
  2146.2600       0.19755000       0.19755000       0.18934954       0.53922231       0.75100000E-02   0.68275000E-01    1.0000000        0.0000000
  2146.3600       0.19798400       0.19798400       0.18910013       0.53903632       0.13175000E-01  -0.68500000E-02    1.0000000        0.0000000
  2146.4600       0.20018500       0.20018500       0.18885072       0.53885033       0.61400000E-02  -0.62975000E-01    1.0000000        0.0000000
  2146.5600       0.19921200       0.19921200       0.18860131       0.53866434       0.58000000E-03   0.25400000E-01    1.0000000        0.0000000
  2146.6600       0.20030100       0.20030100       0.18835190       0.53847834       0.11220000E-01   0.18525000E-01    1.0000000        0.0000000
  2146.7600       0.20145600       0.20145600       0.18810249       0.53829235       0.42850000E-02  -0.99450000E-01    1.0000000        0.0000000
  2146.8600       0.20115800       0.20115800       0.18785308       0.53810636      -0.86700000E-02  -0.21725000E-01    1.0000000        0.0000000
  2146.9600       0.19972200       0.19972200       0.18760366       0.53792037      -0.60000000E-04   0.10427500        1.0000000        0.0000000
  2147.0600       0.20114600       0.20114600       0.18735425       0.53773437       0.12185000E-01   0.57550000E-01    1.0000000        0.0000000
  2147.1600       0.20215900       0.20215900       0.18710484       0.53754838       0.11450000E-01  -0.18800000E-01    1.0000000        0.0000000
  2147.2600       0.20343600       0.20343600       0.18685543       0.53736239       0.84250000E-02  -0.34650000E-01    1.0000000        0.0000000
  2147.3600       0.20384400       0.20384400       0.18660602       0.53717640       0.45200000E-02   0.33500000E-02    1.0000000        0.0000000
  2147.4600       0.20434000       0.20434000       0.18635661       0.53699040       0.90950000E-02   0.18100000E-01    1.0000000        0.0000000
  2147.5600       0.20566300       0.20566300       0.18610719       0.53680441       0.81400000E-02  -0.58475000E-01    1.0000000        0.0000000
  2147.6600       0.20596800       0.20596800       0.18585778       0.53661842      -0.26000000E-02  -0.12000000E-01    1.0000000        0.0000000
  2147.7600       0.20514300       0.20514300       0.18560837       0.53643243       0.57400000E-02   0.56850000E-01    1.0000000        0.0000000
  2147.8600       0.20711600       0.20711600       0.18535896       0.53624644       0.87700000E-02   0.15025000E-01    1.0000000        0.0000000
  2147.9600       0.20689700       0.20689700       0.18510955       0.53606044       0.87450000E-02   0.57275000E-01    1.0000000        0.0000000
  2148.0600       0.20886500       0.20886500       0.18486014       0.53587445       0.20225000E-01   0.63000000E-02    1.0000000        0.0000000
  2148.1600       0.21094200       0.21094200       0.18461073       0.53568846       0.10005000E-01  -0.70450000E-01    1.0000000        0.0000000
  2148.2600       0.21086600       0.21086600       0.18436131       0.53550247       0.61350000E-02   0.23825000E-01    1.0000000        0.0000000
  2148.3600       0.21216900       0.21216900       0.18411190       0.53531647       0.14770000E-01   0.30275000E-01    1.0000000        0.0000000
  2148.4600       0.21382000       0.21382000       0.18386249       0.53513048       0.12190000E-01   0.22725000E-01    1.0000000        0.0000000
  2148.5600       0.21460700       0.21460700       0.18361308       0.53494449       0.19315000E-01   0.48550000E-01    1.0000000        0.0000000
  2148.6600       0.21768300       0.21768300       0.18336367       0.53475850       0.21900000E-01  -0.21350000E-01    1.0000000        0.0000000
  2148.7600       0.21898700       0.21898700       0.18311426       0.53457251       0.15045000E-01   0.45875000E-01    1.0000000        0.0000000
  2148.8600       0.22069200       0.22069200       0.18286485       0.53438651       0.31075000E-01   0.10702500        1.0000000        0.0000000
  2148.9600       0.22520200       0.22520200       0.18261543       0.53420052       0.36450000E-01   0.73500000E-02    1.0000000        0.0000000
  2149.0600       0.22798200       0.22798200       0.18236602       0.53401453       0.32545000E-01  -0.33750000E-01    1.0000000        0.0000000
  2149.1600       0.23171100       0.23171100       0.18211661       0.53382854       0.29700000E-01  -0.20500000E-02    1.0000000        0.0000000
  2149.2600       0.23392200       0.23392200       0.18186720       0.53364254       0.32135000E-01   0.72000000E-01    1.0000000        0.0000000
  2149.3600       0.23813800       0.23813800       0.18161779       0.53345655       0.44100000E-01   0.71700000E-01    1.0000000        0.0000000
  2149.4600       0.24274200       0.24274200       0.18136838       0.53327056       0.46475000E-01   0.44350000E-01    1.0000000        0.0000000
  2149.5600       0.24743300       0.24743300       0.18111897       0.53308457       0.52970000E-01   0.11985000        1.0000000        0.0000000
  2149.6600       0.25333600       0.25333600       0.18086955       0.53289857       0.70445000E-01   0.10705000        1.0000000        0.0000000
  2149.7600       0.26152200       0.26152200       0.18062014       0.53271258       0.74380000E-01   0.79825000E-01    1.0000000        0.0000000
  2149.8600       0.26821200       0.26821200       0.18037073       0.53252659       0.86410000E-01   0.22667500        1.0000000        0.0000000
  2149.9600       0.27880400       0.27880400       0.18012132       0.53234060       0.11971500       0.31495000        1.0000000        0.0000000
  2150.0600       0.29215500       0.29215500       0.17987191       0.53215461       0.14940000       0.34035000        1.0000000        0.0000000
  2150.1600       0.30868400       0.30868400       0.17962250       0.53196861       0.18778500       0.35962500        1.0000000        0.0000000
  2150.2600       0.32971200       0.32971200       0.17937308       0.53178262       0.22132500       0.42685000        1.0000000        0.0000000
  2150.3600       0.35294900       0.35294900       0.17912367       0.53159663       0.27315500       0.45312500        1.0000000        0.0000000
  2150.4600       0.38434300       0.38434300       0.17887426       0.53141064       0.31195000       0.15835000        1.0000000        0.0000000
  2150.5600       0.41533900       0.41533900       0.17862485       0.53122464       0.30482500      -0.73800000E-01    1.0000000        0.0000000
  2150.6600       0.44530800       0.44530800       0.17837544       0.53103865       0.29719000       0.89700000E-01    1.0000000        0.0000000
  2150.7600       0.47477700       0.47477700       0.17812603       0.53085266       0.32276500       0.46390000        1.0000000        0.0000000
  2150.8600       0.50986100       0.50986100       0.17787662       0.53066667       0.38997000       0.55267500        1.0000000        0.0000000
  2150.9600       0.55277100       0.55277100       0.17762720       0.53048068       0.43330000       0.88477500        1.0000000        0.0000000
  2151.0600       0.59652100       0.59652100       0.17737779       0.53029468       0.56692500        1.6889500        1.0000000        0.0000000
  2151.1600       0.66615600       0.66615600       0.17712838       0.53010869       0.77109000        2.0946250        1.0000000        0.0000000
  2151.2600       0.75073900       0.75073900       0.17687897       0.52992270       0.98585000        2.5130750        1.0000000        0.0000000
  2151.3600       0.86332600       0.86332600       0.17662956       0.52973671        1.2737050        2.5393500        1.0000000        0.0000000
  2151.4600        1.0054800        1.0054800       0.17638015       0.52955071        1.4937200        1.9857250        1.0000000        0.0000000
  2151.5600        1.1620700        1.1620700       0.17613074       0.52936472        1.6708500        1.5566500        1.0000000        0.0000000
  2151.6600        1.3396500        1.3396500       0.17588132       0.52917873        1.8050500       0.42975000        1.0000000        0.0000000
  2151.7600        1.5230800        1.5230800       0.17563191       0.52899274        1.7568000       -1.1672500        1.0000000        0.0000000
  2151.8600        1.6910100        1.6910100       0.17538250       0.52880675        1.5716000       -2.2185000        1.0000000        0.0000000
  2151.9600        1.8374000        1.8374000       0.17513309       0.52862075        1.3131000       -2.9405000        1.0000000        0.0000000
  2152.0600        1.9536300       0.93465067       0.17488368       0.52843476       0.98350000       -2.9142500        1.0000000        2.8824381
  2152.1600        2.0341000       0.93206114       0.17463427       0.52824877       0.73025000       -2.3515000        1.0000000        3.1173928
  2152.2600        2.0996800       0.92948274       0.17438485       0.52806278       0.51320000       -2.3132500        1.0000000        3.3101958
  2152.3600        2.1367400       0.92691545       0.17413544       0.52787678       0.26760000       -2.2495000        1.0000000        3.4222916
  2152.4600        2.1532000       0.92435922       0.17388603       0.52769079       0.63300000E-01   -1.6547500        1.0000000        3.4760837
  2152.5600        2.1494000       0.92181402       0.17363662       0.52750480      -0.63350000E-01   -1.1790000        1.0000000        3.4725342
  2152.6600        2.1405300       0.91927983       0.17338721       0.52731881      -0.17250000       -1.3647500        1.0000000        3.4546118
  2152.7600        2.1149000       0.91675659       0.17313780       0.52713281      -0.33630000       -1.6010000        1.0000000        3.3892485
  2152.8600        2.0732700       0.91424429       0.17288839       0.52694682      -0.49270000       -1.2270000        1.0000000        3.2785943
  2152.9600        2.0163600       0.91174288       0.17263897       0.52676083      -0.58170000      -0.70125000        1.0000000        3.1246860
  2153.0600        1.9569300       0.90925232       0.17238956       0.52657484      -0.63295000      -0.75975000        1.0000000        2.9636185
  2153.1600        1.8897700       0.90677259       0.17214015       0.52638885      -0.73365000      -0.86850000        1.0000000        2.7806542
  2153.2600        1.8102000       0.90430365       0.17189074       0.52620285      -0.80665000      -0.41875000        1.0000000        2.5625546
  2153.3600        1.7284400       0.90184546       0.17164133       0.52601686      -0.81740000      -0.31975000        1.0000000        2.3382295
  2153.4600        1.6467200       0.89939799       0.17139192       0.52583087      -0.87060000      -0.24150000        1.0000000        2.1139873
  2153.5600        1.5543200       0.89696120       0.17114251       0.52564488      -0.86570000       0.39200000        1.0000000        1.8595039
  2153.6600        1.4735800       0.89453507       0.17089309       0.52545888      -0.79220000       0.42975000        1.0000000        1.6379735
  2153.7600        1.3958800       0.89211954       0.17064368       0.52527289      -0.77975000       0.45500000E-01    1.0000000        1.4250125
  2153.8600        1.3176300       0.88971460       0.17039427       0.52508690      -0.78310000       0.67000000E-01    1.0000000        1.2104658
  2153.9600        1.2392600       0.88732020       0.17014486       0.52490091      -0.76635000       0.38375000        1.0000000       0.99554981
  2154.0600        1.1643600       0.88493631       0.16989545       0.52471492      -0.70635000       0.60825000        1.0000000       0.79041984
  2154.1600        1.0979900       0.88256289       0.16964604       0.52452892      -0.64470000       0.60212500        1.0000000       0.60938949
  2154.2600        1.0354200       0.88019992       0.16939663       0.52434293      -0.58592500       0.53882500        1.0000000       0.43907885
  2154.3600       0.98080500       0.87784735       0.16914721       0.52415694      -0.53693500       0.51257500        1.0000000       0.29124149
  2154.4600       0.92803300       0.87550515       0.16889780       0.52397095      -0.48341000       0.77755000        1.0000000       0.14858818
  2154.5600       0.88412300       0.87317328       0.16864839       0.52378495      -0.38142500       0.91120000        1.0000000       0.30974026E-01
  2154.6600       0.85174800       0.87085171       0.16839898       0.52359896      -0.30117000       0.47447500        1.0000000      -0.54039634E-01
  2154.7600       0.82388900       0.86854041       0.16814957       0.52341297      -0.28653000       0.10090000        1.0000000      -0.12630770
  2154.8600       0.79444200       0.86623934       0.16790016       0.52322698      -0.28099000       0.25520000        1.0000000      -0.20309675
  2154.9600       0.76769100       0.86394847       0.16765074       0.52304098      -0.23549000       0.53085000        1.0000000      -0.27228834
  2155.0600       0.74734400       0.86166775       0.16740133       0.52285499      -0.17482000       0.41102500        1.0000000      -0.32339335
  2155.1600       0.73272700       0.85939717       0.16715192       0.52266900      -0.15328500       0.15362500        1.0000000      -0.35831827
  2155.2600       0.71668700       0.85713667       0.16690251       0.52248301      -0.14409500       0.20440000        1.0000000      -0.39729704
  2155.3600       0.70390800       0.85488623       0.16665310       0.52229702      -0.11240500       0.24600000        1.0000000      -0.42707970
  2155.4600       0.69420600       0.85264581       0.16640369       0.52211102      -0.94895000E-01   0.11160000        1.0000000      -0.44818665
  2155.5600       0.68492900       0.85041537       0.16615428       0.52192503      -0.90085000E-01   0.24025000E-01    1.0000000      -0.46811963
  2155.6600       0.67618900       0.84819489       0.16590486       0.52173904      -0.90090000E-01   0.78800000E-01    1.0000000      -0.48656172
  2155.7600       0.66691100       0.84598433       0.16565545       0.52155305      -0.74325000E-01   0.13712500        1.0000000      -0.50655372
  2155.8600       0.66132400       0.84378364       0.16540604       0.52136705      -0.62665000E-01   0.56250000E-01    1.0000000      -0.51613277
  2155.9600       0.65437800       0.84159281       0.16515663       0.52118106      -0.63075000E-01   0.18735000        1.0000000      -0.52958394
  2156.0600       0.64870900       0.83941178       0.16490722       0.52099507      -0.25195000E-01   0.16097500        1.0000000      -0.53945055
  2156.1600       0.64933900       0.83724053       0.16465781       0.52080908      -0.30880000E-01  -0.16385000        1.0000000      -0.53152652
  2156.2600       0.64253300       0.83507903       0.16440840       0.52062309      -0.57965000E-01  -0.29375000E-01    1.0000000      -0.54466463
  2156.3600       0.63774600       0.83292723       0.16415898       0.52043709      -0.36755000E-01   0.17597500        1.0000000      -0.55211896
  2156.4600       0.63518200       0.83078510       0.16390957       0.52025110      -0.22770000E-01   0.13710000        1.0000000      -0.55331234
  2156.5600       0.63319200       0.82865262       0.16366016       0.52006511      -0.93350000E-02   0.10370000        1.0000000      -0.55290927
  2156.6600       0.63331500       0.82652973       0.16341075       0.51987912      -0.20300000E-02  -0.91550000E-01    1.0000000      -0.54655622
  2156.7600       0.63278600       0.82441641       0.16316134       0.51969312      -0.27645000E-01  -0.13472500        1.0000000      -0.54207458
  2156.8600       0.62778600       0.82231263       0.16291193       0.51950713      -0.28975000E-01   0.11432500        1.0000000      -0.55026725
  2156.9600       0.62699100       0.82021834       0.16266252       0.51932114      -0.47800000E-02   0.19817500        1.0000000      -0.54659189
  2157.0600       0.62683000       0.81813352       0.16241310       0.51913515       0.10660000E-01   0.85850000E-01    1.0000000      -0.54114988
  2157.1600       0.62912300       0.81605812       0.16216369       0.51894916       0.12390000E-01  -0.93475000E-01    1.0000000      -0.52879278
  2157.2600       0.62930800       0.81399212       0.16191428       0.51876316      -0.80350000E-02  -0.35175000E-01    1.0000000      -0.52242526
  2157.3600       0.62751600       0.81193548       0.16166487       0.51857717       0.53550000E-02   0.13900000        1.0000000      -0.52167665
  2157.4600       0.63037900       0.80988816       0.16141546       0.51839118       0.19765000E-01   0.32825000E-01    1.0000000      -0.50778658
  2157.5600       0.63146900       0.80785013       0.16116605       0.51820519       0.11920000E-01   0.38750000E-02    1.0000000      -0.49893816
  2157.6600       0.63276300       0.80582135       0.16091663       0.51801919       0.20540000E-01   0.14300000E-01    1.0000000      -0.48953886
  2157.7600       0.63557700       0.80380179       0.16066722       0.51783320       0.14780000E-01   0.34975000E-01    1.0000000      -0.47586593
  2157.8600       0.63571900       0.80179142       0.16041781       0.51764721       0.27535000E-01   0.24475000E-01    1.0000000      -0.46977740
  2157.9600       0.64108400       0.79979020       0.16016840       0.51746122       0.19675000E-01  -0.15622500        1.0000000      -0.44894020
  2158.0600       0.63965400       0.79779809       0.15991899       0.51727522      -0.37100000E-02  -0.97125000E-01    1.0000000      -0.44735013
  2158.1600       0.64034200       0.79581506       0.15966958       0.51708923       0.25000000E-03   0.13225000E-01    1.0000000      -0.43979445
  2158.2600       0.63970400       0.79384107       0.15942017       0.51690324      -0.10650000E-02  -0.53725000E-01    1.0000000      -0.43601528
  2158.3600       0.64012900       0.79187610       0.15917075       0.51671725      -0.10495000E-01  -0.51250000E-01    1.0000000      -0.42925464
  2158.4600       0.63760500       0.78992010       0.15892134       0.51653126      -0.11315000E-01   0.15715000        1.0000000      -0.43086137
  2158.5600       0.63786600       0.78797303       0.15867193       0.51634526       0.20935000E-01   0.13965000        1.0000000      -0.42461532
  2158.6600       0.64179200       0.78603488       0.15842252       0.51615927       0.16615000E-01  -0.22732500        1.0000000      -0.40802709
  2158.7600       0.64118900       0.78410559       0.15817311       0.51597328      -0.24530000E-01  -0.20072500        1.0000000      -0.40427536
  2158.8600       0.63688600       0.78218515       0.15792370       0.51578729      -0.23530000E-01   0.11472500        1.0000000      -0.41101500
  2158.9600       0.63648300       0.78027350       0.15767429       0.51560129      -0.15850000E-02  -0.50000000E-03    1.0000000      -0.40674741
  2159.0600       0.63656900       0.77837061       0.15742487       0.51541530      -0.23630000E-01   0.25950000E-01    1.0000000      -0.40112136
  2159.1600       0.63175700       0.77647646       0.15717546       0.51522931       0.36050000E-02   0.17712500        1.0000000      -0.40937522
  2159.2600       0.63729000       0.77459101       0.15692605       0.51504332       0.11795000E-01  -0.11240000        1.0000000      -0.38839026
  2159.3600       0.63411600       0.77271421       0.15667664       0.51485733      -0.18875000E-01  -0.10467500        1.0000000      -0.39205973
  2159.4600       0.63351500       0.77084604       0.15642723       0.51467133      -0.91400000E-02   0.21310000        1.0000000      -0.38847522
  2159.5600       0.63228800       0.76898646       0.15617782       0.51448534       0.23745000E-01   0.13077500        1.0000000      -0.38668582
  2159.6600       0.63826400       0.76713544       0.15592841       0.51429935       0.17015000E-01  -0.13507500        1.0000000      -0.36454513
  2159.7600       0.63569100       0.76529294       0.15567899       0.51411336      -0.32700000E-02  -0.38100000E-01    1.0000000      -0.36661153
  2159.8600       0.63761000       0.76345893       0.15542958       0.51392736       0.93950000E-02   0.10000000E-01    1.0000000      -0.35599520
  2159.9600       0.63757000       0.76163337       0.15518017       0.51374137      -0.12700000E-02  -0.10500000E-02    1.0000000      -0.35094429
  2160.0600       0.63735600       0.75981623       0.15493076       0.51355538       0.91850000E-02   0.86150000E-01    1.0000000      -0.34640940
  2160.1600       0.63940700       0.75800746       0.15468135       0.51336939       0.15960000E-01  -0.34475000E-01    1.0000000      -0.33549110
  2160.2600       0.64054800       0.75620705       0.15443194       0.51318339       0.22900000E-02  -0.13517500        1.0000000      -0.32717057
  2160.3600       0.63986500       0.75441495       0.15418252       0.51299740      -0.11075000E-01  -0.90558333E-01    1.0000000      -0.32403319
  2160.4600       0.63833300       0.75263112       0.15393311       0.51281141      -0.15821667E-01  -0.45583333E-02    1.0000000      -0.32332084
  2160.9600       0.63037200       0.74383494       0.15268606       0.51188145      -0.13810000E-01   0.70756667E-02    1.0000000      -0.32095832
  2161.4600       0.62452300       0.73524046       0.15143900       0.51095149      -0.87460000E-02   0.86240000E-02    1.0000000      -0.31319205
  2161.9600       0.62162600       0.72684333       0.15019194       0.51002153      -0.51860000E-02   0.48650000E-02    1.0000000      -0.29763355
  2162.4600       0.61933700       0.71863918       0.14894488       0.50909157      -0.38810000E-02   0.64540000E-02    1.0000000      -0.28090108
  2162.9600       0.61774500       0.71062367       0.14769783       0.50816160       0.12680000E-02   0.96850000E-02    1.0000000      -0.26273056
  2163.4600       0.62060500       0.70279242       0.14645077       0.50723164       0.58040000E-02   0.59610000E-02    1.0000000      -0.23248768
  2163.9600       0.62354900       0.69514108       0.14520371       0.50630168       0.72290000E-02   0.11761000E-01    1.0000000      -0.20251611
  2164.4600       0.62783400       0.68766529       0.14395665       0.50537172       0.17565000E-01   0.26509000E-01    1.0000000      -0.16924777
  2164.9600       0.64111400       0.68036069       0.14270960       0.50444176       0.33738000E-01   0.30520000E-01    1.0000000      -0.11101907
  2165.4600       0.66157200       0.67322291       0.14146254       0.50351180       0.48085000E-01   0.16002000E-01    1.0000000      -0.32957528E-01
  2165.9600       0.68919900       0.66624762       0.14021548       0.50258184       0.49740000E-01  -0.74260000E-02    1.0000000       0.64923736E-01
  2166.4600       0.71131200       0.65943043       0.13896842       0.50165187       0.40659000E-01  -0.19667000E-01    1.0000000       0.14676001
  2166.9600       0.72985800       0.65276699       0.13772137       0.50072191       0.30073000E-01  -0.21010000E-01    1.0000000       0.21807121
  2167.4600       0.74138500       0.64625295       0.13647431       0.49979195       0.19649000E-01  -0.16465000E-01    1.0000000       0.26910481
  2167.9600       0.74950700       0.63988394       0.13522725       0.49886199       0.13608000E-01  -0.16701000E-01    1.0000000       0.31009625
  2168.4600       0.75499300       0.63365561       0.13398019       0.49793203       0.29480000E-02  -0.18343000E-01    1.0000000       0.34323317
  2168.9600       0.75245500       0.62756359       0.13273314       0.49700207      -0.47350000E-02  -0.77840000E-02    1.0000000       0.35328660
  2169.4600       0.75025800       0.62160353       0.13148608       0.49607211      -0.48360000E-02  -0.45250000E-02    1.0000000       0.36393136
  2169.9600       0.74761900       0.61577107       0.13023902       0.49514215      -0.92600000E-02  -0.11985000E-01    1.0000000       0.37296488
  2170.4600       0.74099800       0.61006184       0.12899197       0.49421218      -0.16821000E-01  -0.13063000E-01    1.0000000       0.37038570
  2170.9600       0.73079800       0.60447149       0.12774491       0.49328222      -0.22323000E-01  -0.53610000E-02    1.0000000       0.35734615
  2171.4600       0.71867500       0.59899566       0.12649785       0.49235226      -0.22182000E-01   0.65800000E-03    1.0000000       0.33854298
  2171.9600       0.70861600       0.59362998       0.12525079       0.49142230      -0.21665000E-01  -0.96580000E-02    1.0000000       0.32526672
  2172.4600       0.69701000       0.58837011       0.12400374       0.49049234      -0.31840000E-01  -0.14546000E-01    1.0000000       0.30731512
  2172.9600       0.67677600       0.58321182       0.12275668       0.48956238      -0.36211000E-01  -0.61750000E-02    1.0000000       0.26466971
  2173.4600       0.66079900       0.57815283       0.12150962       0.48863242      -0.38015000E-01  -0.50290000E-02    1.0000000       0.23378537
  2173.9600       0.63876100       0.57319238       0.12026256       0.48770245      -0.41240000E-01  -0.36010000E-02    1.0000000       0.18547726
  2174.4600       0.61955900       0.56832969       0.11901551       0.48677249      -0.41616000E-01   0.14620000E-02    1.0000000       0.14491492
  2174.9600       0.59714500       0.56356403       0.11776845       0.48584253      -0.39778000E-01   0.11114000E-01    1.0000000       0.94992188E-01
  2175.4600       0.57978100       0.55889462       0.11652139       0.48491257      -0.30502000E-01   0.14107000E-01    1.0000000       0.59082344E-01
  2175.9600       0.56664300       0.55432073       0.11527433       0.48398261      -0.25671000E-01   0.68730000E-02    1.0000000       0.34856627E-01
  2176.4600       0.55411000       0.54984159       0.11402728       0.48305265      -0.23629000E-01   0.37400000E-02    1.0000000       0.12074262E-01
  2176.9600       0.54301400       0.54545646       0.11278022       0.48212269      -0.21931000E-01   0.56410000E-02    1.0000000      -0.69090958E-02
  2177.4600       0.53217900       0.54116457       0.11153316       0.48119273      -0.17988000E-01   0.54320000E-02    1.0000000      -0.25417925E-01
  2177.9600       0.52502600       0.53696517       0.11028610       0.48026276      -0.16499000E-01   0.50830000E-02    1.0000000      -0.33772938E-01
  2178.4600       0.51568000       0.53285752       0.10903905       0.47933280      -0.12905000E-01   0.16740000E-02    1.0000000      -0.48590910E-01
  2178.9600       0.51212100       0.52884085       0.10779199       0.47840284      -0.14825000E-01  -0.39550000E-02    1.0000000      -0.47296282E-01
  2179.4600       0.50085500       0.52491441       0.10654493       0.47747288      -0.16860000E-01  -0.68300000E-03    1.0000000      -0.68058076E-01
  2179.9600       0.49526100       0.52107746       0.10529787       0.47654292      -0.15508000E-01  -0.44100000E-03    1.0000000      -0.73028311E-01
  2180.4600       0.48534700       0.51732922       0.10405082       0.47561296      -0.17301000E-01   0.24810000E-02    1.0000000      -0.90469726E-01
  2180.9600       0.47796000       0.51366896       0.10280376       0.47468300      -0.13027000E-01   0.81990000E-02    1.0000000      -0.10101174
  2181.4600       0.47232000       0.51009592       0.10155670       0.47375303      -0.91020000E-02   0.41060000E-02    1.0000000      -0.10685863
  2181.9600       0.46885800       0.50660933       0.10030964       0.47282307      -0.89210000E-02  -0.99000000E-03    1.0000000      -0.10678909
  2182.4600       0.46339900       0.50320846       0.99062587E-01   0.47189311      -0.10092000E-01   0.81300000E-03    1.0000000      -0.11261102
  2182.9600       0.45876600       0.49989254       0.97815530E-01   0.47096315      -0.81080000E-02   0.43050000E-02    1.0000000      -0.11633671
  2183.4600       0.45529100       0.49666082       0.96568473E-01   0.47003319      -0.57870000E-02   0.46920000E-02    1.0000000      -0.11702489
  2183.9600       0.45297900       0.49351255       0.95321415E-01   0.46910323      -0.34160000E-02   0.78490000E-02    1.0000000      -0.11465929
  2184.4600       0.45187500       0.49044697       0.94074358E-01   0.46817327       0.20620000E-02   0.37890000E-02    1.0000000      -0.10911047
  2184.9600       0.45504100       0.48746333       0.92827300E-01   0.46724331       0.37300000E-03  -0.59430000E-02    1.0000000      -0.91714676E-01
  2185.4600       0.45224800       0.48456088       0.91580243E-01   0.46631334      -0.38810000E-02   0.42200000E-03    1.0000000      -0.91405058E-01
  2185.9600       0.45116000       0.48173885       0.90333186E-01   0.46538338       0.79500000E-03   0.37940000E-02    1.0000000      -0.86499941E-01
  2186.4600       0.45304300       0.47899651       0.89086128E-01   0.46445342      -0.87000000E-04  -0.58000000E-04    1.0000000      -0.73415994E-01
  2186.9600       0.45107300       0.47633309       0.87839071E-01   0.46352346       0.73700000E-03   0.28200000E-02    1.0000000      -0.71454477E-01
  2187.4600       0.45378000       0.47374783       0.86592013E-01   0.46259350       0.27330000E-02  -0.28870000E-02    1.0000000      -0.56484017E-01
  2187.9600       0.45380600       0.47124000       0.85344956E-01   0.46166354      -0.21500000E-02  -0.44920000E-02    1.0000000      -0.49316426E-01
  2188.4600       0.45163000       0.46880882       0.84097899E-01   0.46073358      -0.17590000E-02  -0.67600000E-03    1.0000000      -0.48594601E-01
  2188.9600       0.45204700       0.46645356       0.82850841E-01   0.45980361      -0.28260000E-02   0.17600000E-03    1.0000000      -0.40752550E-01
  2189.4600       0.44880400       0.46417344       0.81603784E-01   0.45887365      -0.15830000E-02   0.20470000E-02    1.0000000      -0.43476317E-01
  2189.9600       0.45046400       0.46196773       0.80356726E-01   0.45794369      -0.77900000E-03  -0.24300000E-02    1.0000000      -0.32541181E-01
  2190.4600       0.44802500       0.45983566       0.79109669E-01   0.45701373      -0.40130000E-02  -0.12750000E-02    1.0000000      -0.33409418E-01
  2190.9600       0.44645100       0.45777649       0.77862611E-01   0.45608377      -0.20540000E-02  -0.73700000E-03    1.0000000      -0.32036981E-01
  2191.4600       0.44597100       0.45578945       0.76615554E-01   0.45515381      -0.47500000E-02   0.99100000E-03    1.0000000      -0.27773951E-01
  2191.9600       0.44170100       0.45387380       0.75368497E-01   0.45422385      -0.10630000E-02   0.36610000E-02    1.0000000      -0.34433814E-01
  2192.4600       0.44490800       0.45202878       0.74121439E-01   0.45329389      -0.10890000E-02  -0.31420000E-02    1.0000000      -0.20142907E-01
  2192.9600       0.44061200       0.45025363       0.72874382E-01   0.45236392      -0.42050000E-02  -0.71200000E-03    1.0000000      -0.27273776E-01
  2193.4600       0.44070300       0.44854761       0.71627324E-01   0.45143396      -0.18010000E-02   0.11020000E-02    1.0000000      -0.22190449E-01
  2193.9600       0.43881100       0.44690996       0.70380267E-01   0.45050400      -0.31030000E-02   0.44470000E-02    1.0000000      -0.22909932E-01
  2194.4600       0.43760000       0.44533992       0.69133210E-01   0.44957404       0.26460000E-02  -0.42200000E-03    1.0000000      -0.21894300E-01
  2194.9600       0.44145700       0.44383674       0.67886152E-01   0.44864408      -0.35250000E-02  -0.89620000E-02    1.0000000      -0.67316955E-02
  2195.4600       0.43407500       0.44239967       0.66639095E-01   0.44771412      -0.63160000E-02   0.36790000E-02    1.0000000      -0.23548415E-01
  2195.9600       0.43514100       0.44102795       0.65392037E-01   0.44678416       0.15400000E-03   0.40640000E-02    1.0000000      -0.16652720E-01
  2196.4600       0.43422900       0.43972083       0.64144980E-01   0.44585420      -0.22520000E-02  -0.21370000E-02    1.0000000      -0.15535027E-01
  2196.9600       0.43288900       0.43847756       0.62897923E-01   0.44492423      -0.19830000E-02   0.14290000E-02    1.0000000      -0.15808642E-01
  2197.4600       0.43224600       0.43729738       0.61650865E-01   0.44399427      -0.82300000E-03  -0.24000000E-04    1.0000000      -0.14289088E-01
  2197.9600       0.43206600       0.43617953       0.60403808E-01   0.44306431      -0.20070000E-02  -0.49000000E-02    1.0000000      -0.11636159E-01
  2198.4600       0.43023900       0.43512327       0.59156750E-01   0.44213435      -0.57230000E-02   0.57300000E-03    1.0000000      -0.13816386E-01
  2198.9600       0.42634300       0.43412784       0.57909693E-01   0.44120439      -0.14340000E-02   0.93400000E-02    1.0000000      -0.22021368E-01
  2199.4600       0.42880500       0.43319248       0.56662636E-01   0.44027443       0.36170000E-02  -0.40200000E-03    1.0000000      -0.12411096E-01
  2199.9600       0.42996000       0.43231645       0.55415578E-01   0.43934447      -0.18360000E-02  -0.65163333E-02    1.0000000      -0.66658062E-02
  2200.4600       0.42696900       0.43149898       0.54168521E-01   0.43841450      -0.28993333E-02   0.79666667E-03    1.0000000      -0.12814189E-01
  2201.4600       0.42561100       0.43003674       0.51674406E-01   0.43655458      -0.64100000E-03   0.14591667E-02    1.0000000      -0.12519304E-01
  2202.4600       0.42568700       0.42879972       0.49180291E-01   0.43469466       0.19000000E-04   0.36975000E-03    1.0000000      -0.88050938E-02
  2203.4600       0.42564900       0.42778189       0.46686176E-01   0.43283474       0.98500000E-04  -0.38850000E-03    1.0000000      -0.60334033E-02
  2204.4600       0.42588400       0.42697722       0.44192061E-01   0.43097481      -0.75800000E-03  -0.53125000E-03    1.0000000      -0.30924448E-02
  2205.4600       0.42413300       0.42637968       0.41697947E-01   0.42911489      -0.96400000E-03   0.36200000E-03    1.0000000      -0.63553042E-02
  2206.4600       0.42395600       0.42598324       0.39203832E-01   0.42725497      -0.34000000E-04   0.87850000E-03    1.0000000      -0.57345692E-02
  2207.4600       0.42406500       0.42578187       0.36709717E-01   0.42539505       0.79300000E-03   0.18020000E-02    1.0000000      -0.48566093E-02
  2208.4600       0.42554200       0.42576954       0.34215602E-01   0.42353512       0.35700000E-02   0.14210000E-02    1.0000000      -0.64365531E-03
  2209.4600       0.43120500       0.42594021       0.31721487E-01   0.42167520       0.36350000E-02  -0.12637500E-02    1.0000000       0.14892772E-01
  2210.4600       0.43281200       0.42628786       0.29227373E-01   0.41981528       0.10425000E-02  -0.16270000E-02    1.0000000       0.18455174E-01
  2211.4600       0.43329000       0.42680644       0.26733258E-01   0.41795536       0.38100000E-03  -0.30425000E-03    1.0000000       0.18340364E-01
  2212.4600       0.43357400       0.42748994       0.24239143E-01   0.41609543       0.43400000E-03   0.60725000E-03    1.0000000       0.17210284E-01
  2213.4600       0.43415800       0.42833232       0.21745028E-01   0.41423551       0.15955000E-02   0.15825000E-03    1.0000000       0.16479398E-01
  2214.4600       0.43676500       0.42932754       0.19250913E-01   0.41237559       0.75050000E-03  -0.14182500E-02    1.0000000       0.21038705E-01
  2215.4600       0.43565900       0.43046959       0.16756798E-01   0.41051566      -0.12410000E-02  -0.32250000E-03    1.0000000       0.14679553E-01
  2216.4600       0.43428300       0.43175242       0.14262684E-01   0.40865574       0.10550000E-03   0.72475000E-03    1.0000000       0.71583910E-02
  2217.4600       0.43587000       0.43317000       0.11768569E-01   0.40679582       0.20850000E-03   0.73600000E-03    1.0000000       0.76376296E-02
  2218.4600       0.43470000       0.43471630       0.92744540E-02   0.40493590       0.15775000E-02   0.16925000E-02    1.0000000      -0.46121703E-04
  2219.4600       0.43902500       0.43638530       0.67803392E-02   0.40307597       0.35935000E-02   0.16400000E-03    1.0000000       0.74670456E-02
  2220.4600       0.44188700       0.43817096       0.42862243E-02   0.40121605       0.19055000E-02  -0.27450000E-03    1.0000000       0.10511748E-01
  2221.4600       0.44283600       0.44006725       0.17921095E-02   0.39935613       0.30445000E-02   0.74675000E-03    1.0000000       0.78321095E-02
  2222.4600       0.44797600       0.44206813      -0.70200531E-03   0.39749621       0.33990000E-02   0.12325000E-03    1.0000000       0.16711882E-01
  2223.4600       0.44963400       0.44416758      -0.31961201E-02   0.39563628       0.32910000E-02  -0.20725000E-03    1.0000000       0.15463127E-01
  2224.4600       0.45455800       0.44635957      -0.56902349E-02   0.39377636       0.29845000E-02  -0.57650000E-03    1.0000000       0.23191311E-01
  2225.4600       0.45560300       0.44863806      -0.81843498E-02   0.39191644       0.21380000E-02   0.11400000E-03    1.0000000       0.19702076E-01
  2226.4600       0.45883400       0.45099702      -0.10678465E-01   0.39005652       0.32125000E-02   0.49150000E-03    1.0000000       0.22168852E-01
  2227.4600       0.46202800       0.45343043      -0.13172579E-01   0.38819659       0.31210000E-02  -0.81450000E-03    1.0000000       0.24320389E-01
  2228.4600       0.46507600       0.45593224      -0.15666694E-01   0.38633667       0.15835000E-02  -0.33775000E-03    1.0000000       0.25865414E-01
  2229.4600       0.46519500       0.45849643      -0.18160809E-01   0.38447675       0.24455000E-02   0.10810000E-02    1.0000000       0.18948577E-01
  2230.4600       0.46996700       0.46111697      -0.20654924E-01   0.38261683       0.37455000E-02   0.50000000E-03    1.0000000       0.25034522E-01
  2231.4600       0.47268600       0.46378783      -0.23149039E-01   0.38075690       0.34455000E-02  -0.10522500E-02    1.0000000       0.25170713E-01
  2232.4600       0.47685800       0.46650297      -0.25643153E-01   0.37889698       0.16410000E-02  -0.13247500E-02    1.0000000       0.29291808E-01
  2233.4600       0.47596800       0.46925636      -0.28137268E-01   0.37703706       0.79600000E-03   0.34925000E-03    1.0000000       0.18985560E-01
  2234.4600       0.47845000       0.47204197      -0.30631383E-01   0.37517713       0.23395000E-02   0.55000000E-04    1.0000000       0.18126710E-01
  2235.4600       0.48064700       0.47485378      -0.33125498E-01   0.37331721       0.90600000E-03  -0.23025000E-03    1.0000000       0.16387581E-01
  2236.4600       0.48026200       0.47768574      -0.35619613E-01   0.37145729       0.18790000E-02   0.36450000E-03    1.0000000       0.72875926E-02
  2237.4600       0.48440500       0.48053183      -0.38113728E-01   0.36959737       0.16350000E-02  -0.13760000E-02    1.0000000       0.10956221E-01
  2238.4600       0.48353200       0.48353200      -0.40607842E-01   0.36773744      -0.87300000E-03  -0.25080000E-02    1.0000000        0.0000000
