# XDI/1.0 Athena/0.9.26
# Element.edge:                  K
# Element.symbol:                P
# Column.1:                      energy eV
# Column.2:                      norm
# Column.3:                      nbkg
# Column.4:                      flat
# Column.5:                      fbkg
# Column.6:                      nder
# Column.7:                      nsec
# Athena.e0:                     2154
# Athena.eshift:                 0
# Athena.rbkg:                   1.0
# Athena.importance:             1
# Athena.standard:               None
# Athena.bkg_kweight:            2
# Athena.edge_step:              0.2891705
# Athena.fixed_step:             no
# Athena.pre_edge_range:         -20.4 -7
# Athena.pre_edge_line:          -1.240879 + 0.000619387 * E
# Athena.normalization_range:    26 71.6
# Athena.post_edge_polynomial:   -0.952664 + 0.00061983 * E + 0 * E^2 + 0 * E^3
# Athena.spline_range_energy:    0.000 85.601
# Athena.clamps:                 0 24
# Athena.spline_range_k:         0.000 4.740
# Athena.kweight:                2
# Athena.window:                 hanning
# Athena.phase_correction:       no
# Athena.k_range:                2.740 3.000
# Athena.dk:                     1
# Athena.r_range:                1 3
# Athena.dr:                     0.0
# Athena.window:                 hanning
# Athena.plot_multiplier:        1
# Athena.y_offset:               0
# ///
#------------------------
#   e         norm        nbkg        flat        fbkg        nder        nsec
  2125.4900       0.85415745E-01   0.85415738E-01   0.85415738E-01   0.85415738E-01  -0.89796057E-02   0.11156049E-02
  2127.4900       0.67456533E-01   0.67456528E-01   0.67456528E-01   0.67456528E-01  -0.67483960E-02   0.17430246E-02
  2129.4900       0.58422161E-01   0.58422157E-01   0.58422156E-01   0.58422157E-01  -0.20075074E-02   0.13487502E-02
  2131.4900       0.59426504E-01   0.59426499E-01   0.59426499E-01   0.59426499E-01  -0.13533950E-02  -0.12714818E-02
  2133.4900       0.53008581E-01   0.53008577E-01   0.53008577E-01   0.53008577E-01  -0.70934346E-02  -0.20745332E-02
  2135.4900       0.31052765E-01   0.31052763E-01   0.31052763E-01   0.31052763E-01  -0.96515277E-02   0.29420362E-03
  2137.4900       0.14402470E-01   0.14402469E-01   0.14402469E-01   0.14402469E-01  -0.59166202E-02   0.58790292E-03
  2139.4900       0.73862844E-02   0.73862839E-02   0.73862838E-02   0.73862839E-02  -0.72999161E-02  -0.21336082E-02
  2140.4900      -0.74972781E-02  -0.74972775E-02  -0.74972775E-02  -0.74972775E-02  -0.12317445E-01  -0.24756289E-02
  2140.5900      -0.61629050E-02  -0.61629045E-02  -0.61629045E-02  -0.61629045E-02  -0.10023108E-01   0.12604078
  2140.6900      -0.95018997E-02  -0.95018989E-02  -0.95018989E-02  -0.95018989E-02   0.12890711E-01   0.10799858
  2140.7900      -0.35847627E-02  -0.35847624E-02  -0.35847625E-02  -0.35847624E-02   0.11576608E-01  -0.20404054
  2140.8900      -0.71865782E-02  -0.71865776E-02  -0.71865776E-02  -0.71865776E-02  -0.27917397E-01  -0.10488623
  2140.9900      -0.91682420E-02  -0.91682413E-02  -0.91682413E-02  -0.91682413E-02  -0.94006377E-02   0.15883364
  2141.0900      -0.90667057E-02  -0.90667050E-02  -0.90667050E-02  -0.90667050E-02   0.38493318E-02   0.12228081
  2141.1900      -0.83983757E-02  -0.83983750E-02  -0.83983750E-02  -0.83983750E-02   0.15055524E-01  -0.48137694E-01
  2141.2900      -0.60556009E-02  -0.60556003E-02  -0.60556004E-02  -0.60556003E-02  -0.57782070E-02  -0.19697723
  2141.3900      -0.95540171E-02  -0.95540163E-02  -0.95540163E-02  -0.95540163E-02  -0.24339922E-01   0.14610758E-01
  2141.4900      -0.10923585E-01  -0.10923584E-01  -0.10923584E-01  -0.10923584E-01  -0.28560553E-02   0.14628049
  2141.5900      -0.10125228E-01  -0.10125227E-01  -0.10125227E-01  -0.10125227E-01   0.49161765E-02  -0.60958851E-01
  2141.6900      -0.99403500E-02  -0.99403491E-02  -0.99403492E-02  -0.99403491E-02  -0.15047825E-01  -0.81275586E-01
  2141.7900      -0.13134793E-01  -0.13134792E-01  -0.13134792E-01  -0.13134792E-01  -0.11338941E-01   0.10418595
  2141.8900      -0.12208138E-01  -0.12208137E-01  -0.12208137E-01  -0.12208137E-01   0.57893639E-02   0.36025462E-01
  2141.9900      -0.11976920E-01  -0.11976919E-01  -0.11976920E-01  -0.11976919E-01  -0.41338483E-02  -0.30743111E-01
  2142.0900      -0.13034908E-01  -0.13034907E-01  -0.13034907E-01  -0.13034907E-01  -0.35925825E-03   0.62783034E-01
  2142.1900      -0.12048772E-01  -0.12048771E-01  -0.12048771E-01  -0.12048771E-01   0.84227586E-02  -0.19192831E-02
  2142.2900      -0.11350356E-01  -0.11350355E-01  -0.11350355E-01  -0.11350355E-01  -0.74311486E-03  -0.11316854E-01
  2142.3900      -0.12197395E-01  -0.12197394E-01  -0.12197394E-01  -0.12197394E-01   0.61593878E-02   0.11290917E-01
  2142.4900      -0.10118478E-01  -0.10118478E-01  -0.10118478E-01  -0.10118478E-01   0.15150686E-02  -0.77661801E-01
  2142.5900      -0.11894381E-01  -0.11894380E-01  -0.11894380E-01  -0.11894380E-01  -0.93729723E-02   0.54232715E-01
  2142.6900      -0.11993073E-01  -0.11993072E-01  -0.11993072E-01  -0.11993072E-01   0.12361612E-01   0.48578611E-01
  2142.7900      -0.94220590E-02  -0.94220583E-02  -0.94220583E-02  -0.94220583E-02   0.34274979E-03  -0.72016342E-02
  2142.8900      -0.11924523E-01  -0.11924522E-01  -0.11924522E-01  -0.11924522E-01   0.10921285E-01   0.72318932E-01
  2142.9900      -0.72378021E-02  -0.72378015E-02  -0.72378015E-02  -0.72378015E-02   0.14806536E-01  -0.12553149
  2143.0900      -0.89632157E-02  -0.89632150E-02  -0.89632150E-02  -0.89632150E-02  -0.14185013E-01  -0.51621798E-01
  2143.1900      -0.10074805E-01  -0.10074804E-01  -0.10074804E-01  -0.10074804E-01   0.44821765E-02   0.19190237
  2143.2900      -0.80667804E-02  -0.80667798E-02  -0.80667798E-02  -0.80667798E-02   0.24195461E-01   0.49927296E-01
  2143.3900      -0.52357123E-02  -0.52357119E-02  -0.52357119E-02  -0.52357119E-02   0.14467636E-01  -0.10336463
  2143.4900      -0.51732533E-02  -0.51732529E-02  -0.51732529E-02  -0.51732529E-02   0.35225350E-02  -0.80385108E-01
  2143.5900      -0.45312054E-02  -0.45312050E-02  -0.45312050E-02  -0.45312050E-02  -0.16093859E-02   0.10346838
  2143.6900      -0.54951305E-02  -0.54951300E-02  -0.54951300E-02  -0.54951300E-02   0.24216210E-01   0.91788416E-01
  2143.7900       0.31203673E-03   0.31203674E-03   0.31203670E-03   0.31203674E-03   0.16748297E-01  -0.22038038
  2143.8900      -0.21454710E-02  -0.21454708E-02  -0.21454709E-02  -0.21454708E-02  -0.19859866E-01  -0.13000117
  2143.9900      -0.36599364E-02  -0.36599361E-02  -0.36599362E-02  -0.36599361E-02  -0.92519365E-02   0.17442998
  2144.0900      -0.39958583E-02  -0.39958580E-02  -0.39958580E-02  -0.39958580E-02   0.15026130E-01   0.74601322E-01
  2144.1900      -0.65471048E-03  -0.65471040E-03  -0.65471043E-03  -0.65471040E-03   0.56683280E-02  -0.19936337E-01
  2144.2900      -0.28621927E-02  -0.28621924E-02  -0.28621925E-02  -0.28621924E-02   0.11038862E-01   0.41247295E-01
  2144.3900       0.15530620E-02   0.15530619E-02   0.15530619E-02   0.15530619E-02   0.13917787E-01  -0.22106337E-01
  2144.4900      -0.78635300E-04  -0.78635259E-04  -0.78635294E-04  -0.78635259E-04   0.66175950E-02   0.13728926E-01
  2144.5900       0.28765810E-02   0.28765808E-02   0.28765808E-02   0.28765808E-02   0.16663572E-01   0.14377332E-01
  2144.6900       0.32540791E-02   0.32540789E-02   0.32540789E-02   0.32540789E-02   0.94930615E-02   0.75647418E-01
  2144.7900       0.47751933E-02   0.47751930E-02   0.47751929E-02   0.47751930E-02   0.31793056E-01   0.37910163E-01
  2144.8900       0.96126903E-02   0.96126896E-02   0.96126895E-02   0.96126896E-02   0.17075094E-01  -0.98168735E-01
  2144.9900       0.81902121E-02   0.81902115E-02   0.81902115E-02   0.81902115E-02   0.12159309E-01   0.77091203E-01
  2145.0900       0.12044552E-01   0.12044551E-01   0.12044551E-01   0.12044551E-01   0.32493335E-01   0.25918967E-01
  2145.1900       0.14688879E-01   0.14688878E-01   0.14688878E-01   0.14688878E-01   0.17343102E-01  -0.64935744E-01
  2145.2900       0.15513172E-01   0.15513171E-01   0.15513171E-01   0.15513171E-01   0.19506186E-01  -0.10373639
  2145.3900       0.18590116E-01   0.18590115E-01   0.18590115E-01   0.18590115E-01  -0.34041749E-02  -0.28120955
  2145.4900       0.14832337E-01   0.14832336E-01   0.14832336E-01   0.14832336E-01  -0.36735724E-01  -0.92298495E-01
  2145.5900       0.11242971E-01   0.11242971E-01   0.11242971E-01   0.11242971E-01  -0.21863874E-01   0.43270323E-01
  2145.6900       0.10459563E-01   0.10459562E-01   0.10459562E-01   0.10459562E-01  -0.28081659E-01   0.21146695E-01
  2145.7900       0.56266396E-02   0.56266392E-02   0.56266391E-02   0.56266392E-02  -0.17634535E-01   0.83921084E-01
  2145.8900       0.69326557E-02   0.69326552E-02   0.69326552E-02   0.69326552E-02  -0.11297443E-01  -0.34123470E-01
  2145.9900       0.33671510E-02   0.33671508E-02   0.33671508E-02   0.33671508E-02  -0.24459229E-01   0.60206699E-01
  2146.0900       0.20408099E-02   0.20408098E-02   0.20408098E-02   0.20408098E-02   0.74389724E-03   0.19253349
  2146.1900       0.35159305E-02   0.35159302E-02   0.35159302E-02   0.35159302E-02   0.14047468E-01   0.13746217E-01
  2146.2900       0.48503036E-02   0.48503033E-02   0.48503032E-02   0.48503033E-02   0.34931405E-02  -0.60881042E-01
  2146.3900       0.42145586E-02   0.42145583E-02   0.42145583E-02   0.42145583E-02   0.18712599E-02   0.46365383E-01
  2146.4900       0.52245556E-02   0.52245552E-02   0.52245552E-02   0.52245552E-02   0.12766217E-01   0.54198133E-01
  2146.5900       0.67678020E-02   0.67678015E-02   0.67678015E-02   0.67678015E-02   0.12710887E-01   0.52036778E-01
  2146.6900       0.77667329E-02   0.77667323E-02   0.77667323E-02   0.77667323E-02   0.23173573E-01   0.11403308E-01
  2146.7900       0.11402517E-01   0.11402516E-01   0.11402516E-01   0.11402516E-01   0.14991548E-01  -0.14158603
  2146.8900       0.10765043E-01   0.10765042E-01   0.10765042E-01   0.10765042E-01  -0.51436332E-02   0.15777890E-01
  2146.9900       0.10373790E-01   0.10373789E-01   0.10373789E-01   0.10373789E-01   0.18147126E-01   0.13390025
  2147.0900       0.14394468E-01   0.14394467E-01   0.14394467E-01   0.14394467E-01   0.21636417E-01  -0.79996064E-01
  2147.1900       0.14701073E-01   0.14701072E-01   0.14701072E-01   0.14701072E-01   0.21479133E-02  -0.93137101E-01
  2147.2900       0.14824050E-01   0.14824049E-01   0.14824049E-01   0.14824049E-01   0.30089971E-02   0.19992532
  2147.3900       0.15302873E-01   0.15302872E-01   0.15302872E-01   0.15302872E-01   0.42132977E-01   0.20893385
  2147.4900       0.23250646E-01   0.23250644E-01   0.23250644E-01   0.23250644E-01   0.44795766E-01  -0.91589571E-01
  2147.5900       0.24262026E-01   0.24262024E-01   0.24262024E-01   0.24262024E-01   0.23815063E-01  -0.89393635E-01
  2147.6900       0.28013658E-01   0.28013656E-01   0.28013656E-01   0.28013656E-01   0.26917039E-01   0.38143590E-01
  2147.7900       0.29645434E-01   0.29645432E-01   0.29645432E-01   0.29645432E-01   0.31443781E-01  -0.76166143E-02
  2147.8900       0.34302415E-01   0.34302412E-01   0.34302412E-01   0.34302412E-01   0.25393716E-01  -0.47740005E-01
  2147.9900       0.34724177E-01   0.34724175E-01   0.34724175E-01   0.34724175E-01   0.21895780E-01   0.10286320
  2148.0900       0.38681571E-01   0.38681568E-01   0.38681568E-01   0.38681568E-01   0.45966356E-01   0.58339289E-01
  2148.1900       0.43917448E-01   0.43917445E-01   0.43917445E-01   0.43917445E-01   0.33563638E-01  -0.89765388E-01
  2148.2900       0.45394298E-01   0.45394295E-01   0.45394295E-01   0.45394295E-01   0.28013279E-01   0.58615942E-01
  2148.3900       0.49520104E-01   0.49520100E-01   0.49520100E-01   0.49520100E-01   0.45286826E-01   0.14377332
  2148.4900       0.54451663E-01   0.54451659E-01   0.54451659E-01   0.54451659E-01   0.56767943E-01   0.13616535
  2148.5900       0.60873693E-01   0.60873688E-01   0.60873688E-01   0.60873688E-01   0.72519897E-01  -0.24812353E-01
  2148.6900       0.68955643E-01   0.68955637E-01   0.68955637E-01   0.68955637E-01   0.51805472E-01  -0.32074505E-01
  2148.7900       0.71234787E-01   0.71234782E-01   0.71234782E-01   0.71234782E-01   0.66104996E-01   0.18544424
  2148.8900       0.82176642E-01   0.82176635E-01   0.82176635E-01   0.82176635E-01   0.88894321E-01  -0.52737057E-01
  2148.9900       0.89013651E-01   0.89013644E-01   0.89013644E-01   0.89013644E-01   0.55557584E-01  -0.10426376
  2149.0900       0.93288159E-01   0.93288151E-01   0.93288151E-01   0.93288151E-01   0.68041569E-01   0.18094862
  2149.1900       0.10262197       0.10262196       0.10262196       0.10262196       0.91747309E-01   0.30518330
  2149.2900       0.11163762       0.11163761       0.11163761       0.11163761       0.12907823       0.25089007
  2149.3900       0.12843761       0.12843760       0.12843760       0.12843760       0.14192532      -0.14377332
  2149.4900       0.14002268       0.14002267       0.14002267       0.14002267       0.10032356      -0.33371318E-01
  2149.5900       0.14850232       0.14850231       0.14850231       0.14850231       0.13525106       0.37849645
  2149.6900       0.16707290       0.16707288       0.16707288       0.16707288       0.17602286       0.16547332
  2149.7900       0.18370689       0.18370688       0.18370688       0.18370688       0.16834572       0.86021921E-01
  2149.8900       0.20074204       0.20074203       0.20074203       0.20074203       0.19322724       0.30673947
  2149.9900       0.22235234       0.22235233       0.22235233       0.22235233       0.22969362       0.33250282
  2150.0900       0.24668076       0.24668075       0.24668075       0.24668075       0.25972780       0.41376976
  2150.1900       0.27429790       0.27429788       0.27429788       0.27429788       0.31244757       0.63491959
  2150.2900       0.30917028       0.30917025       0.30917025       0.30917025       0.38671172       0.81085387
  2150.3900       0.35164025       0.35164022       0.35164022       0.35164022       0.47461834       0.96569333
  2150.4900       0.40409395       0.40409392       0.40409392       0.40409392       0.57985039        1.3516248
  2150.5900       0.46761033       0.46761029       0.46761029       0.46761029       0.74494331        1.6098635
  2150.6900       0.55308261       0.55308257       0.55308257       0.55308257       0.90182309        1.6227452
  2150.7900       0.64797494       0.64797489       0.64797489       0.64797489        1.0694923        2.3769716
  2150.8900       0.76698108       0.76698102       0.76698102       0.76698102        1.3772174        3.0516601
  2150.9900       0.92341842       0.92341835       0.92341835       0.92341835        1.6798244        3.0680864
  2151.0900        1.1029460        1.1029459        1.1029459        1.1029459        1.9908347        3.4811645
  2151.1900        1.3215854        1.3215853        1.3215853        1.3215853        2.3760573        3.4605019
  2151.2900        1.5781574        1.5781573        1.5781573        1.5781573        2.6829351        3.7496048
  2151.3900        1.8581724        1.8581722        1.8581722        1.8581722        3.1259782        4.4469443
  2151.4900        2.2033530        2.2033529        2.2033529        2.2033529        3.5723239        3.0800170
  2151.5900        2.5726372        2.5726370        2.5726370        2.5726370        3.7419816        1.3422878
  2151.6900        2.9517494        2.9517491        2.9517491        2.9517491        3.8407815       0.30466457
  2151.7900        3.3407934        3.3407932        3.3407932        3.3407932        3.8029145       -1.0843085
  2151.8900        3.7123323        3.7123320        3.7123320        3.7123320        3.6239198       -2.1675795
  2151.9900        4.0655774        4.0655771        4.0655771        4.0655771        3.3693986       -2.6878608
  2152.0900        4.3862120        4.3862117        4.3862117        4.3862117        3.0863476       -1.4351396
  2152.1900        4.6828469        4.6828466        4.6828466        4.6828466        3.0823707      -0.93111165
  2152.2900        5.0026862        5.0026858        5.0026858        5.0026858        2.9001253       -5.1284627
  2152.3900        5.2628720        5.2628716        5.2628716        5.2628716        2.0566782       -7.9071004
  2152.4900        5.4140218        5.4140214        5.4140214        5.4140214        1.3187052       -7.5586900
  2152.5900        5.5266130        5.5266126        5.5266126        5.5266126       0.54494018       -5.7863791
  2152.6900        5.5230098        5.5230094        5.5230094        5.5230094       0.16142939       -2.2158209
  2152.7900        5.5588989        5.5588985        5.5588985        5.5588985       0.10177600       0.65186461
  2152.8900        5.5433650        5.5433646        5.5433646        5.5433646       0.29180231        3.8195462
  2152.9900        5.6172594        5.6172589        5.6172589        5.6172589       0.86568524        4.0564307
  2153.0900        5.7165021        5.7165016        5.7165016        5.7165016        1.1030884       0.11930679
  2153.1900        5.8378771        5.8378766        5.8378766        5.8378766       0.88954659       -5.2330722
  2153.2900        5.8944114        5.8944109        5.8944109        5.8944109       0.56473999E-01   -7.0581202
  2153.3900        5.8491719        5.8491714        5.8491714        5.8491714      -0.52207745       -6.5955903
  2153.4900        5.7899959        5.7899954        5.7899954        5.7899954       -1.2626441       -8.1249650
  2153.5900        5.5966430        5.5966426        5.5966426        5.5966426       -2.1470704       -6.2117337
  2153.6900        5.3605818        5.3605814        5.3605814        5.3605814       -2.5049908       -5.0956101
  2153.7900        5.0956449        5.0956445        5.0956445        5.0956445       -3.1661925       -6.9612915
  2153.8900        4.7273433        4.7273429        4.7273429        4.7273429       -3.8972491       -4.7835104
  2153.9900        4.3161951        4.3161947        4.3161948        4.3161948       -4.1228946       -1.2838448
  2154.0900        3.9027644       0.92977205        3.9027640       0.92977199       -4.1540181       0.42604626
  2154.1900        3.4853914       0.94857278        3.4853910       0.94857257       -4.0376853        2.4424174
  2154.2900        3.0952273       0.96712617        3.0952267       0.96712580       -3.6655346        3.6676462
  2154.3900        2.7522845       0.98543350        2.7522838       0.98543298       -3.3041561        4.0172669
  2154.4900        2.4343961        1.0034961        2.4343953        1.0034954       -2.8620812        4.5058196
  2154.5900        2.1798683        1.0213153        2.1798673        1.0213145       -2.4029921        4.0092267
  2154.6900        1.9537977        1.0388923        1.9537966        1.0388914       -2.0602359        3.9181904
  2154.7900        1.7678211        1.0562286        1.7678198        1.0562275       -1.6193541        4.2212124
  2154.8900        1.6299269        1.0733254        1.6299255        1.0733241       -1.2159934        3.4455454
  2154.9900        1.5246224        1.0901839        1.5246209        1.0901825      -0.93024499        2.5522142
  2155.0900        1.4438779        1.1068056        1.4438762        1.1068040      -0.70555054        2.2699413
  2155.1900        1.3835123        1.1231917        1.3835105        1.1231900      -0.47625673        1.7917631
  2155.2900        1.3486265        1.1393436        1.3486245        1.1393417      -0.34719792        1.2959483
  2155.3900        1.3140727        1.1552625        1.3140706        1.1552605      -0.21706707        1.1850276
  2155.4900        1.3052131        1.1709498        1.3052108        1.1709476      -0.11019239       0.64417019
  2155.5900        1.2920343        1.1864068        1.2920318        1.1864044      -0.88233028E-01   0.59636102
  2155.6900        1.2875665        1.2016347        1.2875639        1.2016322       0.90798104E-02   0.86047857
  2155.7900        1.2938502        1.2166349        1.2938475        1.2166322       0.83862687E-01   0.48915782
  2155.8900        1.3043391        1.2314087        1.3043361        1.2314059       0.10691137      -0.11040200
  2155.9900        1.3152325        1.2459574        1.3152294        1.2459545       0.61782286E-01  -0.29480880
  2156.0900        1.3166955        1.2602824        1.3166923        1.2602793       0.47949615E-01   0.39353948
  2156.1900        1.3248224        1.2743848        1.3248190        1.2743816       0.14049018       0.80583952
  2156.2900        1.3447936        1.2882662        1.3447900        1.2882627       0.20911752      -0.18518488
  2156.3900        1.3666459        1.3019276        1.3666422        1.3019240       0.10345321       -1.1767280
  2156.4900        1.3654842        1.3153705        1.3654804        1.3153668      -0.26228082E-01  -0.51267336
  2156.5900        1.3614003        1.3285962        1.3613963        1.3285923       0.91853471E-03   0.43443232
  2156.6900        1.3656679        1.3416059        1.3656638        1.3416019       0.60658381E-01   0.39492275
  2156.7900        1.3735320        1.3544011        1.3735277        1.3543969       0.79903085E-01   0.13348527
  2156.8900        1.3816485        1.3669829        1.3816441        1.3669786       0.87355436E-01   0.11852870
  2156.9900        1.3910031        1.3793527        1.3909985        1.3793482       0.10360882       0.10141077
  2157.0900        1.4023703        1.3915119        1.4023655        1.3915072       0.10763759       0.10772192
  2157.1900        1.4125306        1.4034617        1.4125257        1.4034569       0.12515321       0.20455062
  2157.2900        1.4274009        1.4152034        1.4273959        1.4151984       0.14854771       0.40719924E-01
  2157.3900        1.4422401        1.4267383        1.4422349        1.4267332       0.13329719      -0.19633747
  2157.4900        1.4540604        1.4380678        1.4540550        1.4380625       0.10928022      -0.24457891
  2157.5900        1.4640962        1.4491932        1.4640906        1.4491877       0.84381412E-01  -0.91468535E-01
  2157.6900        1.4709367        1.4601157        1.4709310        1.4601101       0.90986512E-01   0.39423112
  2157.7900        1.4822935        1.4708367        1.4822876        1.4708310       0.16322763       0.42129128
  2157.8900        1.5035822        1.4813575        1.5035762        1.4813516       0.17524477       0.28789246
  2157.9900        1.5173424        1.4916794        1.5173363        1.4916734       0.22080613      -0.42276100E-01
  2158.0900        1.5477434        1.5018037        1.5477371        1.5017975       0.16678955      -0.93405109
  2158.1900        1.5507004        1.5117318        1.5506939        1.5117254       0.33995909E-01  -0.32645103
  2158.2900        1.5545426        1.5214648        1.5545360        1.5214583       0.10149934       0.34426059
  2158.3900        1.5710002        1.5310042        1.5709934        1.5309976       0.10284803      -0.39319367
  2158.4900        1.5751122        1.5403513        1.5751053        1.5403445       0.22860609E-01  -0.39777574
  2158.5900        1.5755723        1.5495073        1.5755653        1.5495003       0.23292880E-01  -0.13279364
  2158.6900        1.5797708        1.5584735        1.5797635        1.5584664      -0.36981192E-02  -0.56229807
  2158.7900        1.5748327        1.5672514        1.5748253        1.5672441      -0.89166733E-01  -0.63673512
  2158.8900        1.5619374        1.5758421        1.5619299        1.5758347      -0.13104514      -0.26480919
  2158.9900        1.5486237        1.5842470        1.5486160        1.5842395      -0.14212857      -0.80834670E-01
  2159.0900        1.5335117        1.5924675        1.5335039        1.5924597      -0.14721208      -0.33111956E-01
  2159.1900        1.5191813        1.6005047        1.5191733        1.6004968      -0.14875096      -0.14705858
  2159.2900        1.5037615        1.6083601        1.5037534        1.6083521      -0.17662379      -0.51699607E-01
  2159.3900        1.4838565        1.6160349        1.4838482        1.6160267      -0.15909088      -0.68298812E-02
  2159.4900        1.4719433        1.6235304        1.4719349        1.6235221      -0.17798977       0.32506776E-01
  2159.5900        1.4482586        1.6308480        1.4482500        1.6308396      -0.15258953       0.43296259
  2159.6900        1.4414254        1.6379890        1.4414167        1.6379804      -0.91397252E-01   0.46797654
  2159.7900        1.4299791        1.6449546        1.4299702        1.6449458      -0.58994220E-01   0.66474628
  2159.8900        1.4296266        1.6517463        1.4296175        1.6517373       0.41552005E-01   0.68808891
  2159.9900        1.4382895        1.6583652        1.4382803        1.6583561       0.78623563E-01  -0.33890043E-01
  2160.0900        1.4453513        1.6648127        1.4453419        1.6648034       0.34773996E-01  -0.63777258
  2160.1900        1.4452443        1.6710901        1.4452348        1.6710807      -0.48930952E-01  -0.11498408
  2160.2900        1.4355651        1.6771987        1.4355554        1.6771892       0.11777181E-01   0.45872594
  2160.3900        1.4475997        1.6831399        1.4475899        1.6831302       0.42814236E-01   0.26074584
  2160.4900        1.4441280        1.6889149        1.4441180        1.6889051       0.63926350E-01   0.41284759E-01
  2160.9900        1.4859556        1.7153434        1.4859448        1.7153327       0.67585091E-01  -0.10505913E-01
  2161.4900        1.5117130        1.7378143        1.5117015        1.7378029       0.53420436E-01   0.11698981E-01
  2161.9900        1.5393760        1.7564913        1.5393637        1.7564791       0.79284073E-01   0.62485632E-01
  2162.4900        1.5909971        1.7715381        1.5909841        1.7715251       0.11590607       0.31911971E-01
  2162.9900        1.6552821        1.7831184        1.6552682        1.7831047       0.11119604      -0.29965023E-01
  2163.4900        1.7021932        1.7913959        1.7021786        1.7913814       0.85941045E-01  -0.77324629E-01
  2163.9900        1.7412231        1.7965342        1.7412077        1.7965190       0.33871415E-01  -0.12122261
  2164.4900        1.7360646        1.7986972        1.7360484        1.7986812      -0.35281565E-01  -0.11845953
  2164.9900        1.7059415        1.7980485        1.7059246        1.7980317      -0.84588119E-01  -0.90801109E-01
  2165.4900        1.6514765        1.7947518        1.6514588        1.7947342      -0.12608267      -0.16402089E-01
  2165.9900        1.5798589        1.7889707        1.5798404        1.7889524      -0.10099021       0.11503595
  2166.4900        1.5504863        1.7808690        1.5504671        1.7808500      -0.11046725E-01   0.19297959
  2166.9900        1.5688121        1.7706104        1.5687922        1.7705906       0.91989381E-01   0.18605980
  2167.4900        1.6424756        1.7583586        1.6424549        1.7583380       0.17501307       0.86730846E-01
  2167.9900        1.7438252        1.7442772        1.7438037        1.7442559       0.17872023      -0.59452819E-01
  2168.4900        1.8211959        1.7285300        1.8211736        1.7285079       0.11556025      -0.11170919
  2168.9900        1.8593855        1.7112807        1.8593624        1.7112578       0.67011035E-01  -0.66075210E-01
  2169.4900        1.8882069        1.6926929        1.8881831        1.6926692       0.49485042E-01  -0.22253309E-01
  2169.9900        1.9088705        1.6729304        1.9088459        1.6729059       0.44757726E-01  -0.13988288E-01
  2170.4900        1.9329646        1.6521568        1.9329393        1.6521316       0.35496753E-01  -0.40346442E-01
  2170.9900        1.9443673        1.6305358        1.9443411        1.6305099       0.44112841E-02  -0.63581871E-01
  2171.4900        1.9373759        1.6082312        1.9373490        1.6082045      -0.28085118E-01  -0.45353869E-01
  2171.9900        1.9162821        1.5854067        1.9162545        1.5853792      -0.40942585E-01  -0.11868431E-01
  2172.4900        1.8964333        1.5622259        1.8964049        1.5621976      -0.39953549E-01  -0.31434744E-02
  2172.9900        1.8763286        1.5388525        1.8762994        1.5388234      -0.44086060E-01  -0.22982982E-01
  2173.4900        1.8523473        1.5154502        1.8523173        1.5154204      -0.62936532E-01  -0.64529409E-01
  2173.9900        1.8133921        1.4921828        1.8133614        1.4921522      -0.10861547      -0.92001093E-01
  2174.4900        1.7437318        1.4692138        1.7437003        1.4691825      -0.15493762      -0.73641681E-01
  2174.9900        1.6584544        1.4467070        1.6584222        1.4466749      -0.18225715      -0.25607732E-01
  2175.4900        1.5614746        1.4247803        1.5614417        1.4247474      -0.18054536       0.35027780E-01
  2175.9900        1.4779091        1.4034430        1.4778753        1.4034094      -0.14722937       0.45073758E-01
  2176.4900        1.4142453        1.3826883        1.4142108        1.3826539      -0.13547160       0.25185835E-01
  2176.9900        1.3424375        1.3625094        1.3424022        1.3624743      -0.12204353       0.44987303E-01
  2177.4900        1.2922017        1.3428996        1.2921657        1.3428637      -0.90484295E-01   0.33571892E-01
  2177.9900        1.2519532        1.3238521        1.2519164        1.3238154      -0.88471642E-01  -0.50973392E-02
  2178.4900        1.2037301        1.3053602        1.2036925        1.3053227      -0.95581635E-01   0.54466141E-02
  2178.9900        1.1563716        1.2874169        1.1563332        1.2873787      -0.83025028E-01   0.25586983E-01
  2179.4900        1.1207051        1.2700157        1.1206660        1.2699767      -0.69994652E-01   0.23238887E-01
  2179.9900        1.0863769        1.2531496        1.0863371        1.2531099      -0.59786141E-01   0.25279206E-01
  2180.4900        1.0609189        1.2368120        1.0608783        1.2367715      -0.44715446E-01   0.15938695E-01
  2180.9900        1.0416615        1.2209961        1.0416201        1.2209548      -0.43847446E-01   0.17591699E-01
  2181.4900        1.0170715        1.2056951        1.0170293        1.2056530      -0.27123747E-01   0.40052498E-01
  2181.9900        1.0145377        1.1909022        1.0144948        1.1908594      -0.37949478E-02   0.19320783E-01
  2182.4900        1.0132765        1.1766106        1.0132329        1.1765670      -0.78029642E-02  -0.10955475E-01
  2182.9900        1.0067347        1.1628137        1.0066903        1.1627693      -0.14750423E-01  -0.91918097E-02
  2183.4900       0.99852611        1.1495045       0.99848091        1.1494594      -0.16994774E-01   0.14327189E-01
  2183.9900       0.98973997        1.1366764       0.98969400        1.1366305      -0.42323435E-03   0.17062599E-01
  2184.4900       0.99810288        1.1243226       0.99805614        1.1242759       0.67825457E-04   0.10685738E-02
  2184.9900       0.98980779        1.1124362       0.98976029        1.1123888       0.64533946E-03   0.10402168E-01
  2185.4900       0.99874822        1.1010106       0.99869995        1.1009624       0.10469994E-01   0.78846223E-03
  2185.9900        1.0002778        1.0900390        1.0002288        1.0899900       0.14338017E-02  -0.12501276E-01
  2186.4900        1.0001820        1.0795145        1.0001322        1.0794648      -0.20312823E-02  -0.83722240E-02
  2186.9900       0.99824651        1.0694305       0.99819594        1.0693800      -0.69384223E-02   0.16875858E-02
  2187.4900       0.99324360        1.0597801       0.99319226        1.0597288      -0.34369650E-03   0.14302982E-01
  2187.9900       0.99790281        1.0505566       0.99785071        1.0505045       0.73645593E-02   0.69025027E-02
  2188.4900        1.0006082        1.0417531        1.0005553        1.0417003       0.65588062E-02  -0.35826617E-02
  2188.9900        1.0044616        1.0333631        1.0044080        1.0333095       0.37818975E-02  -0.58685106E-02
  2189.4900        1.0043901        1.0253795        1.0043357        1.0253252       0.69029564E-03   0.57751400E-03
  2189.9900        1.0051519        1.0177958        1.0050967        1.0177407       0.43594116E-02   0.39423112E-03
  2190.4900        1.0087495        1.0106051        1.0086935        1.0105492       0.10845268E-02  -0.16090854E-01
  2190.9900        1.0062364        1.0038006        1.0061797        1.0037440      -0.11731443E-01  -0.26800800E-02
  2191.4900       0.99701802       0.99737565       0.99696055       0.99731826      -0.15955532E-02   0.14558886E-01
  2191.9900        1.0046409       0.99132338        1.0045826       0.99126522       0.28274433E-02   0.56437297E-02
  2192.4900       0.99984547       0.98563705       0.99978646       0.98557812       0.40481765E-02   0.59826301E-03
  2192.9900        1.0086891       0.98030988        1.0086293       0.98025019       0.34257063E-02  -0.13915667E-01
  2193.4900        1.0032712       0.97533510        1.0032106       0.97527465      -0.98674903E-02  -0.62350763E-02
  2193.9900       0.99882157       0.97070595       0.99876027       0.97064473      -0.28093701E-02   0.13867252E-02
  2194.4900        1.0004618       0.96641566        1.0003997       0.96635367      -0.84807651E-02  -0.21924783E-02
  2194.9900       0.99034081       0.96245744       0.99027797       0.96239469      -0.50018484E-02  -0.24518409E-02
  2195.4900       0.99545995       0.95882454       0.99539635       0.95876102      -0.10932606E-01   0.59791719E-02
  2195.9900       0.97940820       0.95551018       0.97934383       0.95544589       0.97732356E-03   0.14213069E-01
  2196.4900       0.99643728       0.95250758       0.99637214       0.95244253       0.32804632E-02  -0.15575587E-01
  2196.9900       0.98268866       0.94980999       0.98262276       0.94974417      -0.14598264E-01  -0.31469326E-02
  2197.4900       0.98183901       0.94741062       0.98177235       0.94734404       0.13353064E-03   0.16602663E-01
  2197.9900       0.98282219       0.94530271       0.98275476       0.94523536       0.20043994E-02  -0.26766218E-02
  2198.4900       0.98384341       0.94347949       0.98377522       0.94341137      -0.25430911E-02  -0.70477457E-02
  2198.9900       0.98027910       0.94193418       0.98021014       0.94186529      -0.50433464E-02   0.70581202E-02
  2199.4900       0.97880007       0.94066002       0.97873034       0.94059036       0.45150291E-02   0.54085743E-02
  2199.9900       0.98479413       0.93965022       0.98472363       0.93957981       0.36522788E-03  -0.31550017E-02
  2200.4900       0.97916529       0.93889804       0.97909403       0.93882685       0.13600274E-02  -0.89912360E-04
  2201.4900       0.98683417       0.93813938       0.98676138       0.93806666       0.23035934E-03  -0.21037187E-02
  2202.4900       0.97962601       0.93832988       0.97955168       0.93825563      -0.28474099E-02   0.11705898E-02
  2203.4900       0.98113935       0.93941537       0.98106349       0.93933959       0.25715389E-02   0.18838368E-02
  2204.4900       0.98476909       0.94134168       0.98469170       0.94126437       0.92026379E-03  -0.16149643E-02
  2205.4900       0.98297988       0.94405465       0.98290095       0.94397580      -0.65838976E-03   0.14878766E-02
  2206.4900       0.98345231       0.94750011       0.98337185       0.94741972       0.38960171E-02  -0.64494827E-03
  2207.4900       0.99077191       0.95162389       0.99068992       0.95154197      -0.19482863E-02  -0.69880923E-02
  2208.4900       0.97955574       0.95637182       0.97947221       0.95628837      -0.10080168E-01  -0.39077295E-02
  2209.4900       0.97061158       0.96168973       0.97052652       0.96160475      -0.97637453E-02   0.32230123E-02
  2210.4900       0.96002825       0.96752346       0.95994166       0.96743695      -0.36341430E-02   0.64702317E-02
  2211.4900       0.96334329       0.97381885       0.96325517       0.97373080       0.31767182E-02   0.40840960E-02
  2212.4900       0.96638168       0.98052172       0.96629203       0.98043213       0.45340490E-02  -0.30812274E-02
  2213.4900       0.97241139       0.98757790       0.97232020       0.98748679      -0.29857366E-02  -0.33596099E-02
  2214.4900       0.96041021       0.99493323       0.96031749       0.99484058      -0.21851708E-02   0.29109126E-02
  2215.4900       0.96804105        1.0025335       0.96794679        1.0024394       0.28360887E-02   0.47714069E-02
  2216.4900       0.96608239        1.0103247       0.96598660        1.0102290       0.73576429E-02   0.54837894E-02
  2217.4900       0.98275634        1.0182524       0.98265901        1.0181552       0.13803667E-01   0.70373712E-03
  2218.4900       0.99368972        1.0262627       0.99359087        1.0261639       0.87651172E-02  -0.13694344E-02
  2219.4900        1.0002866        1.0343013        1.0001862        1.0342009       0.11064799E-01   0.38385661E-02
  2220.4900        1.0158193        1.0423140        1.0157174        1.0422121       0.16442249E-01   0.31754625E-02
  2221.4900        1.0331711        1.0502467        1.0330676        1.0501433       0.17415724E-01   0.24846935E-02
  2222.4900        1.0506508        1.0580451        1.0505458        1.0579402       0.21411636E-01   0.10858647E-02
  2223.4900        1.0759943        1.0656553        1.0758878        1.0655488       0.19587453E-01  -0.41039805E-02
  2224.4900        1.0898257        1.0730229        1.0897176        1.0729149       0.13203675E-01  -0.67771441E-02
  2225.4900        1.1024017        1.0800938        1.1022921        1.0799843       0.60331647E-02  -0.46019566E-02
  2226.4900        1.1018920        1.0868139        1.1017809        1.0867028       0.39997621E-02  -0.17368647E-02
  2227.4900        1.1104012        1.0931289        1.1102886        1.0930163       0.25594353E-02  -0.94926703E-03
  2228.4900        1.1070109        1.0989847        1.1068967        1.0988706       0.21012281E-02  -0.99422321E-04
  2229.4900        1.1146037        1.1043272        1.1144879        1.1042115       0.23605906E-02  -0.13011356E-02
  2230.4900        1.1117321        1.1091021        1.1116148        1.1089850      -0.50104313E-03  -0.13296655E-02
  2231.4900        1.1136016        1.1132554        1.1134828        1.1131367      -0.29874032E-03   0.19849883E-02
  2232.4900        1.1111346        1.1167327        1.1110142        1.1166125       0.34689334E-02   0.24172592E-02
  2233.4900        1.1205395        1.1194801        1.1204176        1.1193583       0.45357781E-02  -0.27146616E-03
  2234.4900        1.1202061        1.1214432        1.1200827        1.1213199       0.29260010E-02  -0.47039726E-02
  2235.4900        1.1263915        1.1225680        1.1262665        1.1224432      -0.48721671E-02  -0.43036897E-02
  2236.4900        1.1104618        1.1228003        1.1103353        1.1226739      -0.56813783E-02   0.37815064E-02
  2237.4900        1.1150287        1.1220858        1.1149007        1.1219579       0.26908456E-02   0.32480840E-02
  2238.4900        1.1158435        1.1203705        1.1157140        1.1202410       0.81478968E-03  -0.18760560E-02
