# XDI/1.0 Athena/0.9.26
# Element.edge:                  K
# Element.symbol:                P
# Column.1:                      energy eV
# Column.2:                      norm
# Column.3:                      nbkg
# Column.4:                      flat
# Column.5:                      fbkg
# Column.6:                      nder
# Column.7:                      nsec
# Athena.e0:                     2154
# Athena.eshift:                 0
# Athena.rbkg:                   1.0
# Athena.importance:             1
# Athena.standard:               None
# Athena.bkg_kweight:            2
# Athena.edge_step:              0.3142109
# Athena.fixed_step:             no
# Athena.pre_edge_range:         -27.4 -10
# Athena.pre_edge_line:          3.002239 - 0.00132169 * E
# Athena.normalization_range:    25 53.6
# Athena.post_edge_polynomial:   5.596632 - 0.00238027 * E + 0 * E^2 + 0 * E^3
# Athena.spline_range_energy:    0.000 85.601
# Athena.clamps:                 0 24
# Athena.spline_range_k:         0.000 4.740
# Athena.kweight:                2
# Athena.window:                 hanning
# Athena.phase_correction:       no
# Athena.k_range:                2.740 3.000
# Athena.dk:                     1
# Athena.r_range:                1 3
# Athena.dr:                     0.0
# Athena.window:                 hanning
# Athena.plot_multiplier:        1
# Athena.y_offset:               0
# ///
#------------------------
#   e         norm        nbkg        flat        fbkg        nder        nsec
  2125.4600       0.83008443E-02   0.83008439E-02   0.83008439E-02   0.83008439E-02  -0.37993971E-02   0.12010246E-02
  2127.4600       0.70205003E-03   0.70204998E-03   0.70205000E-03   0.70204998E-03  -0.13973480E-02   0.10566152E-02
  2129.4600       0.27114525E-02   0.27114523E-02   0.27114524E-02   0.27114523E-02   0.42706370E-03   0.54541395E-03
  2131.4600       0.24103048E-02   0.24103047E-02   0.24103047E-02   0.24103047E-02   0.78430785E-03  -0.67231917E-04
  2133.4600       0.58486839E-02   0.58486836E-02   0.58486836E-02   0.58486836E-02   0.15813603E-03  -0.16827870E-03
  2135.4600       0.30428490E-02   0.30428488E-02   0.30428488E-02   0.30428488E-02   0.11119304E-03  -0.35227137E-03
  2137.4600       0.62934560E-02   0.62934557E-02   0.62934557E-02   0.62934557E-02  -0.12509495E-02  -0.10496533E-02
  2139.4600      -0.19609489E-02  -0.19609488E-02  -0.19609488E-02  -0.19609488E-02  -0.40874203E-02  -0.82861901E-03
  2140.4600      -0.59688048E-02  -0.59688045E-02  -0.59688045E-02  -0.59688045E-02  -0.37368065E-02   0.12889433E-02
  2140.6600      -0.64451167E-02  -0.64451164E-02  -0.64451164E-02  -0.64451164E-02  -0.25406884E-02   0.31781557E-01
  2140.7600      -0.67310113E-02  -0.67310110E-02  -0.67310109E-02  -0.67310110E-02   0.57976606E-02   0.89669077E-01
  2140.8600      -0.52855845E-02  -0.52855843E-02  -0.52855843E-02  -0.52855843E-02   0.15393127E-01  -0.38509169E-01
  2140.9600      -0.36523859E-02  -0.36523857E-02  -0.36523857E-02  -0.36523857E-02  -0.19041732E-02  -0.16732393
  2141.0600      -0.56664192E-02  -0.56664189E-02  -0.56664189E-02  -0.56664189E-02  -0.18071659E-01  -0.12093789E-01
  2141.1600      -0.72667176E-02  -0.72667173E-02  -0.72667173E-02  -0.72667173E-02  -0.43229309E-02   0.74392712E-01
  2141.2600      -0.65310054E-02  -0.65310051E-02  -0.65310050E-02  -0.65310051E-02  -0.31931164E-02   0.33417047E-01
  2141.3600      -0.79053409E-02  -0.79053406E-02  -0.79053405E-02  -0.79053406E-02   0.23604786E-02   0.94681634E-01
  2141.4600      -0.60589096E-02  -0.60589094E-02  -0.60589094E-02  -0.60589094E-02   0.15743210E-01   0.33576176E-01
  2141.5600      -0.47566988E-02  -0.47566986E-02  -0.47566986E-02  -0.47566986E-02   0.90757138E-02  -0.10072853
  2141.6600      -0.42437669E-02  -0.42437667E-02  -0.42437667E-02  -0.42437667E-02  -0.44024953E-02  -0.15992444E-01
  2141.7600      -0.56371979E-02  -0.56371977E-02  -0.56371976E-02  -0.56371977E-02   0.58772250E-02   0.17496211
  2141.8600      -0.30683219E-02  -0.30683218E-02  -0.30683217E-02  -0.30683218E-02   0.30589927E-01   0.22914547E-01
  2141.9600       0.48078751E-03   0.48078747E-03   0.48078749E-03   0.48078747E-03   0.10460134E-01  -0.29454740
  2142.0600      -0.97629502E-03  -0.97629500E-03  -0.97629498E-03  -0.97629500E-03  -0.28319553E-01  -0.10773020
  2142.1600      -0.51831232E-02  -0.51831229E-02  -0.51831229E-02  -0.51831229E-02  -0.11085905E-01   0.24712702
  2142.2600      -0.31934760E-02  -0.31934758E-02  -0.31934758E-02  -0.31934758E-02   0.21105851E-01   0.17806512
  2142.3600      -0.96195300E-03  -0.96195298E-03  -0.96195296E-03  -0.96195298E-03   0.24527120E-01   0.67788867E-01
  2142.4600       0.17119480E-02   0.17119479E-02   0.17119479E-02   0.17119479E-02   0.34663624E-01  -0.22254162
  2142.5600       0.59707718E-02   0.59707715E-02   0.59707716E-02   0.59707715E-02  -0.19981204E-01  -0.34379776
  2142.6600      -0.22842929E-02  -0.22842928E-02  -0.22842928E-02  -0.22842928E-02  -0.34095929E-01   0.24450140
  2142.7600      -0.84841389E-03  -0.84841387E-03  -0.84841385E-03  -0.84841387E-03   0.28919075E-01   0.17870164
  2142.8600       0.34995221E-02   0.34995219E-02   0.34995219E-02   0.34995219E-02   0.16443990E-02  -0.14178376
  2142.9600      -0.51953409E-03  -0.51953409E-03  -0.51953407E-03  -0.51953409E-03   0.56232318E-03   0.20121836
  2143.0600       0.36119867E-02   0.36119865E-02   0.36119865E-02   0.36119865E-02   0.41888072E-01   0.86486501E-01
  2143.1600       0.78580802E-02   0.78580798E-02   0.78580799E-02   0.78580798E-02   0.17859623E-01  -0.22962285
  2143.2600       0.71839114E-02   0.71839110E-02   0.71839110E-02   0.71839110E-02  -0.40364990E-02  -0.10749150
  2143.3600       0.70507804E-02   0.70507801E-02   0.70507801E-02   0.70507801E-02  -0.36386771E-02  -0.56729416E-01
  2143.4600       0.64561760E-02   0.64561756E-02   0.64561757E-02   0.64561756E-02  -0.15382382E-01   0.91658187E-01
  2143.5600       0.39743040E-02   0.39743038E-02   0.39743038E-02   0.39743038E-02   0.14692960E-01   0.93885990E-01
  2143.6600       0.93947680E-02   0.93947676E-02   0.93947676E-02   0.93947676E-02   0.33948158E-02  -0.22110946
  2143.7600       0.46532671E-02   0.46532669E-02   0.46532669E-02   0.46532669E-02  -0.29528932E-01   0.86725194E-01
  2143.8600       0.34889816E-02   0.34889814E-02   0.34889814E-02   0.34889814E-02   0.20739855E-01   0.17559863
  2143.9600       0.88012380E-02   0.88012376E-02   0.88012376E-02   0.88012376E-02   0.55907931E-02  -0.31340416
  2144.0600       0.46071402E-02   0.46071400E-02   0.46071400E-02   0.46071400E-02  -0.41940978E-01  -0.12738260
  2144.1600       0.41304237E-03   0.41304233E-03   0.41304235E-03   0.41304233E-03  -0.19885727E-01   0.19819492
  2144.2600       0.62999477E-03   0.62999472E-03   0.62999474E-03   0.62999472E-03  -0.23019952E-02   0.68504947E-01
  2144.3600      -0.47356666E-04  -0.47356684E-04  -0.47356664E-04  -0.47356684E-04  -0.61847378E-02   0.60468943E-02
  2144.4600      -0.60695279E-03  -0.60695278E-03  -0.60695276E-03  -0.60695278E-03  -0.10926163E-02   0.19095456E-02
  2144.5600      -0.26587993E-03  -0.26587994E-03  -0.26587992E-03  -0.26587994E-03  -0.58028287E-02   0.44556063E-01
  2144.6600      -0.17675185E-02  -0.17675185E-02  -0.17675184E-02  -0.17675185E-02   0.78185963E-02   0.10359285
  2144.7600       0.12978393E-02   0.12978392E-02   0.12978393E-02   0.12978392E-02   0.14915741E-01  -0.14019247
  2144.8600       0.12156296E-02   0.12156295E-02   0.12156295E-02   0.12156295E-02  -0.20219898E-01  -0.13764641
  2144.9600      -0.27461402E-02  -0.27461401E-02  -0.27461401E-02  -0.27461401E-02  -0.12613541E-01   0.13868075
  2145.0600      -0.13070786E-02  -0.13070786E-02  -0.13070786E-02  -0.13070786E-02   0.75162516E-02  -0.22755418E-01
  2145.1600      -0.12428899E-02  -0.12428898E-02  -0.12428898E-02  -0.12428898E-02  -0.17164625E-01  -0.45829093E-01
  2145.2600      -0.47400036E-02  -0.47400034E-02  -0.47400034E-02  -0.47400034E-02  -0.16495671E-02   0.23590844
  2145.3600      -0.15728033E-02  -0.15728032E-02  -0.15728032E-02  -0.15728032E-02   0.30017063E-01   0.79246141E-01
  2145.4600       0.12634091E-02   0.12634090E-02   0.12634090E-02   0.12634090E-02   0.14199661E-01  -0.19994533
  2145.5600       0.12671289E-02   0.12671288E-02   0.12671288E-02   0.12671288E-02  -0.99720032E-02   0.55297257E-01
  2145.6600      -0.73099154E-03  -0.73099153E-03  -0.73099150E-03  -0.73099153E-03   0.25259112E-01   0.16931304
  2145.7600       0.63189514E-02   0.63189511E-02   0.63189511E-02   0.63189511E-02   0.23890605E-01  -0.82985667E-01
  2145.8600       0.40471294E-02   0.40471292E-02   0.40471292E-02   0.40471292E-02   0.86619789E-02  -0.10534326
  2145.9600       0.80513472E-02   0.80513468E-02   0.80513468E-02   0.80513468E-02   0.28219521E-02  -0.56490723E-02
  2146.0600       0.46115198E-02   0.46115196E-02   0.46115196E-02   0.46115196E-02   0.75321645E-02   0.94442941E-01
  2146.1600       0.95577801E-02   0.95577796E-02   0.95577796E-02   0.95577796E-02   0.21710540E-01   0.11051495
  2146.2600       0.89536279E-02   0.89536274E-02   0.89536274E-02   0.89536274E-02   0.29635154E-01  -0.26972331E-01
  2146.3600       0.15484811E-01   0.15484810E-01   0.15484810E-01   0.15484810E-01   0.16316074E-01  -0.27370153
  2146.4600       0.12216843E-01   0.12216842E-01   0.12216842E-01   0.12216842E-01  -0.25105152E-01  -0.28484055E-01
  2146.5600       0.10463781E-01   0.10463780E-01   0.10463780E-01   0.10463780E-01   0.10619263E-01   0.17257518
  2146.6600       0.14340695E-01   0.14340695E-01   0.14340695E-01   0.14340695E-01   0.94098843E-02   0.35087900E-01
  2146.7600       0.12345757E-01   0.12345757E-01   0.12345757E-01   0.12345757E-01   0.17636843E-01   0.13740772
  2146.8600       0.17868064E-01   0.17868063E-01   0.17868063E-01   0.17868063E-01   0.36891427E-01   0.26415380E-01
  2146.9600       0.19724043E-01   0.19724042E-01   0.19724042E-01   0.19724042E-01   0.22919919E-01  -0.12754173
  2147.0600       0.22452048E-01   0.22452047E-01   0.22452047E-01   0.22452047E-01   0.11383081E-01   0.18856762E-01
  2147.1600       0.22000659E-01   0.22000658E-01   0.22000658E-01   0.22000658E-01   0.26691272E-01   0.15968575
  2147.2600       0.27790302E-01   0.27790301E-01   0.27790301E-01   0.27790301E-01   0.43320231E-01   0.13342950
  2147.3600       0.30664705E-01   0.30664704E-01   0.30664704E-01   0.30664704E-01   0.53377171E-01  -0.12077876
  2147.4600       0.38465736E-01   0.38465734E-01   0.38465734E-01   0.38465734E-01   0.19164479E-01  -0.29876432
  2147.5600       0.34497601E-01   0.34497600E-01   0.34497600E-01   0.34497600E-01  -0.63756924E-02   0.81473944E-01
  2147.6600       0.37190598E-01   0.37190596E-01   0.37190596E-01   0.37190596E-01   0.35459268E-01   0.20917480
  2147.7600       0.41589455E-01   0.41589453E-01   0.41589453E-01   0.41589453E-01   0.35459268E-01   0.29836649E-01
  2147.8600       0.44282451E-01   0.44282449E-01   0.44282449E-01   0.44282449E-01   0.41426598E-01   0.64288034E-01
  2147.9600       0.49874775E-01   0.49874772E-01   0.49874772E-01   0.49874772E-01   0.48316875E-01   0.83622183E-01
  2148.0600       0.53945826E-01   0.53945824E-01   0.53945824E-01   0.53945824E-01   0.58151035E-01  -0.68186689E-01
  2148.1600       0.61504981E-01   0.61504979E-01   0.61504979E-01   0.61504979E-01   0.34679537E-01  -0.23614713
  2148.2600       0.60881734E-01   0.60881731E-01   0.60881731E-01   0.60881731E-01   0.10921608E-01   0.79166576E-01
  2148.3600       0.63689303E-01   0.63689300E-01   0.63689300E-01   0.63689300E-01   0.50512852E-01   0.30719814
  2148.4600       0.70984304E-01   0.70984301E-01   0.70984301E-01   0.70984301E-01   0.72361236E-01   0.10956018
  2148.5600       0.78161550E-01   0.78161547E-01   0.78161547E-01   0.78161547E-01   0.72424888E-01   0.67629738E-02
  2148.6600       0.85469282E-01   0.85469278E-01   0.85469278E-01   0.85469278E-01   0.73713831E-01   0.19811535E-01
  2148.7600       0.92904316E-01   0.92904312E-01   0.92904312E-01   0.92904312E-01   0.76387195E-01   0.19175020E-01
  2148.8600       0.10074672       0.10074672       0.10074672       0.10074672       0.77548835E-01   0.10995800
  2148.9600       0.10841408       0.10841408       0.10841408       0.10841408       0.98378794E-01   0.21386910
  2149.0600       0.12042248       0.12042247       0.12042247       0.12042247       0.12032266       0.99296369E-01
  2149.1600       0.13247861       0.13247861       0.13247861       0.13247861       0.11823807       0.94124683E-01
  2149.2600       0.14407009       0.14407009       0.14407009       0.14407009       0.13914759       0.41118881
  2149.3600       0.16030813       0.16030813       0.16030813       0.16030813       0.20047583       0.40370976
  2149.4600       0.18416526       0.18416525       0.18416525       0.18416525       0.21988954       0.30870987E-01
  2149.5600       0.20428604       0.20428603       0.20428603       0.20428603       0.20665003       0.18069075
  2149.6600       0.22549526       0.22549525       0.22549525       0.22549525       0.25602769       0.65767932
  2149.7600       0.25549158       0.25549157       0.25549157       0.25549157       0.33818589       0.83598313
  2149.8600       0.29313244       0.29313243       0.29313243       0.29313243       0.42322432        1.0793706
  2149.9600       0.34013644       0.34013643       0.34013643       0.34013643       0.55406002        1.3987421
  2150.0600       0.40394445       0.40394443       0.40394443       0.40394443       0.70297274        1.3299985
  2150.1600       0.48073099       0.48073097       0.48073097       0.48073097       0.82005971        1.4206223
  2150.2600       0.56795639       0.56795636       0.56795636       0.56795636       0.98709721        1.4647010
  2150.3600       0.67815043       0.67815040       0.67815040       0.67815040        1.1129999        1.2054802
  2150.4600       0.79055637       0.79055633       0.79055633       0.79055633        1.2281932       0.83534662
  2150.5600       0.92378908       0.92378904       0.92378904       0.92378904        1.2800692      -0.17090433
  2150.6600        1.0465702        1.0465702        1.0465702        1.0465702        1.1940124      -0.23837494
  2150.7600        1.1625916        1.1625915        1.1625915        1.1625915        1.2323942        1.7377660
  2150.8600        1.2930491        1.2930490        1.2930490        1.2930490        1.5415656        3.9614318
  2150.9600        1.4709047        1.4709046        1.4709046        1.4709046        2.0246806        5.0458150
  2151.0600        1.6979852        1.6979851        1.6979851        1.6979851        2.5507286        5.7520286
  2151.1600        1.9810504        1.9810503        1.9810503        1.9810503        3.1750863        5.5636997
  2151.2600        2.3330025        2.3330023        2.3330023        2.3330023        3.6634685        3.1186062
  2151.3600        2.7137441        2.7137440        2.7137440        2.7137440        3.7988076      -0.91976444E-01
  2151.4600        3.0927640        3.0927638        3.0927638        3.0927638        3.6450732       -2.8468937
  2151.5600        3.4427587        3.4427586        3.4427586        3.4427586        3.2294288       -5.3125149
  2151.6600        3.7386497        3.7386496        3.7386496        3.7386496        2.5825703       -6.2625138
  2151.7600        3.9592728        3.9592726        3.9592726        3.9592726        1.9769261       -5.7708058
  2151.8600        4.1340349        4.1340348        4.1340348        4.1340348        1.4284091       -5.5209736
  2151.9600        4.2449546        4.2449544        4.2449544        4.2449544       0.87273134       -5.2114681
  2152.0600        4.3085812        4.3085810        4.3085810        4.3085810       0.38611548       -3.1348373
  2152.1600        4.3221777        4.3221775        4.3221775        4.3221775       0.24576389       -1.0987843
  2152.2600        4.3577340        4.3577338        4.3577338        4.3577338       0.16635862       0.92294702E-01
  2152.3600        4.3554494        4.3554492        4.3554492        4.3554492       0.26422283        1.6939260
  2152.4600        4.4105786        4.4105784        4.4105784        4.4105784       0.50514382        1.4735327
  2152.5600        4.4564782        4.4564780        4.4564780        4.4564780       0.55892936      -0.79643963
  2152.6600        4.5223644        4.5223642        4.5223642        4.5223642       0.34585590       -2.8173753
  2152.7600        4.5256494        4.5256492        4.5256492        4.5256492      -0.45457112E-02   -3.9169553
  2152.8600        4.5214553        4.5214551        4.5214551        4.5214551      -0.43753517       -4.4540150
  2152.9600        4.4381424        4.4381421        4.4381421        4.4381421      -0.89534871       -2.7394022
  2153.0600        4.3423855        4.3423853        4.3423853        4.3423853      -0.98541561       -2.5221914
  2153.1600        4.2410592        4.2410590        4.2410590        4.2410590       -1.3997870       -3.9503724
  2153.2600        4.0624281        4.0624280        4.0624280        4.0624280       -1.7754901       -2.3527193
  2153.3600        3.8859612        3.8859610        3.8859610        3.8859610       -1.8703308       -1.3358862
  2153.4600        3.6883620        3.6883618        3.6883618        3.6883618       -2.0426673       -2.0288922
  2153.5600        3.4774277        3.4774276        3.4774276        3.4774276       -2.2761093       -1.1465230
  2153.6600        3.2331401        3.2331400        3.2331400        3.2331400       -2.2719719        1.0152417
  2153.7600        3.0230334        3.0230332        3.0230332        3.0230332       -2.0730609        1.5643156
  2153.8600        2.8185279        2.8185278        2.8185278        2.8185278       -1.9591088        1.4767948
  2153.9600        2.6312116        2.6312115        2.6310768        2.6310768       -1.7777020        1.3469457
  2154.0600        2.4629875        1.0980758        2.4631896        1.0982780       -1.6897197        1.0305977
  2154.1600        2.2932677        1.1073761        2.2938066        1.1079152       -1.5715824        1.3447179
  2154.2600        2.1486710        1.1165381        2.1495469        1.1174141       -1.4207761        1.9657180
  2154.3600        2.0091124        1.1255624        2.0103252        1.1267753       -1.1784388        2.0184692
  2154.4600        1.9129833        1.1344499        1.9145330        1.1359997       -1.0170822        1.4458442
  2154.5600        1.8056960        1.1432013        1.8075826        1.1450879      -0.88926999        1.4606432
  2154.6600        1.7351293        1.1518173        1.7373528        1.1540409      -0.72495360        1.0622643
  2154.7600        1.6607053        1.1602987        1.6632657        1.1628592      -0.67681714        1.1748479
  2154.8600        1.5997659        1.1686464        1.6026632        1.1715438      -0.48998402        1.3256224
  2154.9600        1.5627085        1.1768610        1.5659427        1.1800953      -0.41169265       0.81370510
  2155.0600        1.5174273        1.1849433        1.5209985        1.1885145      -0.32724300       0.99272500
  2155.1600        1.4972599        1.1928941        1.5011679        1.1968022      -0.21314765       0.19851317
  2155.2600        1.4747978        1.2007142        1.4790427        1.2049592      -0.28754036       0.23232804E-01
  2155.3600        1.4397518        1.2084042        1.4443336        1.2129861      -0.20850109       0.76867165
  2155.4600        1.4330976        1.2159651        1.4380163        1.2208839      -0.13380603       0.50889389
  2155.5600        1.4129906        1.2233975        1.4182462        1.2286532      -0.10672231       0.49218537
  2155.6600        1.4117531        1.2307021        1.4173457        1.2362947      -0.35368959E-01   0.10343372
  2155.7600        1.4059168        1.2378799        1.4118462        1.2438094      -0.86035568E-01  -0.22803157
  2155.8600        1.3945460        1.2449315        1.4008123        1.2511979      -0.80975272E-01   0.26105079
  2155.9600        1.3897218        1.2518576        1.3963250        1.2584609      -0.33825410E-01   0.33926259
  2156.0600        1.3877809        1.2586592        1.3947211        1.2655994      -0.13122753E-01   0.15936749
  2156.1600        1.3870972        1.2653368        1.3943742        1.2726139      -0.19519118E-02   0.38747862E-01
  2156.2600        1.3873905        1.2718914        1.3950045        1.2795054      -0.53731809E-02   0.13844205
  2156.3600        1.3860226        1.2783235        1.3939734        1.2862745       0.25736499E-01   0.73597068E-01
  2156.4600        1.3925378        1.2846341        1.4008256        1.2929220       0.93462327E-02   0.21498300
  2156.5600        1.3878918        1.2908239        1.3965165        1.2994486       0.68733100E-01   0.22707679
  2156.6600        1.4062845        1.2968936        1.4152460        1.3058552       0.54761591E-01  -0.46537217
  2156.7600        1.3988441        1.3028440        1.4081426        1.3121426      -0.24341333E-01  -0.26956418
  2156.8600        1.4014162        1.3086759        1.4110515        1.3183114       0.84875501E-03   0.10216069
  2156.9600        1.3990139        1.3143901        1.4089861        1.3243624      -0.39091960E-02   0.50507480
  2157.0600        1.4006343        1.3199872        1.4109435        1.3302964       0.10186372       0.32223581
  2157.1600        1.4193866        1.3254681        1.4300327        1.3361142       0.60537967E-01  -0.51939639
  2157.2600        1.4127419        1.3308335        1.4237249        1.3418165      -0.20155633E-02  -0.81871766E-01
  2157.3600        1.4189835        1.3360841        1.4303034        1.3474041       0.44163613E-01  -0.27847539E-02
  2157.4600        1.4215747        1.3412209        1.4332314        1.3528777      -0.25725141E-02  -0.66308969
  2157.5600        1.4184690        1.3462444        1.4304627        1.3582382      -0.88454326E-01  -0.12364307
  2157.6600        1.4038838        1.3511556        1.4162144        1.3634862      -0.27301129E-01   0.35811936
  2157.7600        1.4130088        1.3559551        1.4256762        1.3686226      -0.16830454E-01  -0.14242027
  2157.8600        1.4005177        1.3606436        1.4135221        1.3736481      -0.55785184E-01  -0.44237805E-01
  2157.9600        1.4018517        1.3652221        1.4151930        1.3785634      -0.25678015E-01   0.56808980E-01
  2158.0600        1.3953821        1.3696912        1.4090603        1.3833694      -0.44423388E-01  -0.10574109
  2158.1600        1.3929671        1.3740517        1.4069821        1.3880668      -0.46826232E-01  -0.32939661E-01
  2158.2600        1.3860169        1.3783043        1.4003688        1.3926564      -0.51011320E-01  -0.26025515
  2158.3600        1.3827648        1.3824499        1.3974537        1.3971388      -0.98877262E-01  -0.35071987
  2158.4600        1.3662414        1.3864892        1.3812672        1.4015150      -0.12115529       0.15825359
  2158.5600        1.3585337        1.3904229        1.3738964        1.4057856      -0.67226544E-01   0.23423759
  2158.6600        1.3527961        1.3942518        1.3684957        1.4099515      -0.74307776E-01  -0.97068566E-01
  2158.7600        1.3436722        1.3979767        1.3597087        1.4140133      -0.86640257E-01   0.98659854E-02
  2158.8600        1.3354680        1.4015984        1.3518414        1.4179718      -0.72334578E-01   0.22755418E-01
  2158.9600        1.3292053        1.4051176        1.3459156        1.4218279      -0.82089174E-01  -0.13215647
  2159.0600        1.3190502        1.4085350        1.3360974        1.4255823      -0.98765872E-01   0.18848806
  2159.1600        1.3094521        1.4118515        1.3268362        1.4292356      -0.44391562E-01   0.17472342
  2159.2600        1.3101719        1.4150678        1.3278929        1.4327888      -0.63821188E-01  -0.17607601
  2159.3600        1.2966879        1.4181846        1.3147458        1.4362426      -0.79606764E-01   0.31809846
  2159.4600        1.2942505        1.4212028        1.3126453        1.4395976      -0.20149505E-03   0.21832471
  2159.5600        1.2966476        1.4241231        1.3153793        1.4428548      -0.35941823E-01  -0.43036383
  2159.6600        1.2870622        1.4269462        1.3061308        1.4460148      -0.86274261E-01  -0.53387711E-01
  2159.7600        1.2793927        1.4296729        1.2987982        1.4490785      -0.46619365E-01   0.19310279
  2159.8600        1.2777383        1.4323040        1.2974807        1.4520465      -0.47653702E-01   0.28881877E-01
  2159.9600        1.2698620        1.4348403        1.2899413        1.4549197      -0.40842990E-01   0.20368486
  2160.0600        1.2695697        1.4372825        1.2899859        1.4576988      -0.69167303E-02   0.19986577
  2160.1600        1.2684786        1.4396313        1.2892317        1.4603845      -0.86983599E-03   0.23805668
  2160.2600        1.2693957        1.4418876        1.2904857        1.4629777       0.40694606E-01   0.12141527
  2160.3600        1.2766175        1.4440521        1.2980444        1.4654791       0.23413218E-01  -0.30070038
  2160.4600        1.2740784        1.4461256        1.2958422        1.4678895      -0.19445471E-01  -0.74085063E-01
  2160.9600        1.2649503        1.4551541        1.2883986        1.4786025      -0.21037820E-01   0.26627552E-02
  2161.4600        1.2530406        1.4620214        1.2781734        1.4871543      -0.16782716E-01   0.14331139E-01
  2161.9600        1.2481675        1.4668229        1.2749849        1.4936403      -0.67066802E-02   0.53149018E-02
  2162.4600        1.2463339        1.4696541        1.2748357        1.4981560      -0.11467814E-01   0.11893286E-01
  2162.9600        1.2366997        1.4706104        1.2668861        1.5007968       0.51866060E-02   0.23878867E-01
  2163.4600        1.2515205        1.4697874        1.2833913        1.5016583       0.12411053E-01   0.22131633E-01
  2163.9600        1.2491108        1.4672805        1.2826661        1.5008360       0.27318239E-01   0.41239819E-01
  2164.4600        1.2788387        1.4631853        1.3140786        1.4984252       0.53650872E-01   0.15499145E-01
  2164.9600        1.3027617        1.4575971        1.3396860        1.4945215       0.42817384E-01   0.29884388E-02
  2165.4600        1.3216561        1.4506114        1.3602650        1.4892204       0.56639311E-01   0.19365975E-01
  2165.9600        1.3594010        1.4423238        1.3996943        1.4826173       0.62183358E-01   0.17402325E-01
  2166.4600        1.3838395        1.4328298        1.4258173        1.4748077       0.74041636E-01   0.22201650E-01
  2166.9600        1.4334426        1.4222247        1.4771050        1.4658871       0.84385008E-01  -0.58463920E-02
  2167.4600        1.4682245        1.4106041        1.5135714        1.4559510       0.68195244E-01  -0.16027452E-01
  2167.9600        1.5016379        1.3980634        1.5486692        1.4450949       0.68357556E-01  -0.10216069E-01
  2168.4600        1.5365820        1.3846982        1.5852979        1.4334141       0.57979176E-01  -0.35301132E-01
  2168.9600        1.5596170        1.3706039        1.6100174        1.4210043       0.33056423E-01  -0.39938145E-01
  2169.4600        1.5696385        1.3558760        1.6217234        1.4079609       0.18041030E-01  -0.24168482E-01
  2169.9600        1.5776581        1.3406099        1.6314275        1.3943794       0.88879418E-02  -0.32790080E-01
  2170.4600        1.5785264        1.3249012        1.6339803        1.3803552      -0.14749050E-01  -0.46570634E-01
  2170.9600        1.5629090        1.3088453        1.6200474        1.3659838      -0.37682692E-01  -0.20744030E-01
  2171.4600        1.5408437        1.2925378        1.5996666        1.3513608      -0.35493080E-01  -0.25797960E-01
  2171.9600        1.5274159        1.2760740        1.5879234        1.3365815      -0.63480652E-01  -0.45097101E-01
  2172.4600        1.4773631        1.2595494        1.5395550        1.3217414      -0.80590180E-01  -0.53753707E-02
  2172.9600        1.4468257        1.2430596        1.5107022        1.3069362      -0.68856023E-01  -0.37586222E-02
  2173.4600        1.4085070        1.2267001        1.4740680        1.2922611      -0.84348803E-01  -0.16953582E-01
  2173.9600        1.3624769        1.2105662        1.4297224        1.2778117      -0.85809605E-01  -0.49966442E-03
  2174.4600        1.3226974        1.1947535        1.3916274        1.2636835      -0.84848467E-01   0.95477278E-05
  2174.9600        1.2776285        1.1793355        1.3482430        1.2499500      -0.85800057E-01  -0.98818983E-02
  2175.4600        1.2368974        1.1643203        1.3091964        1.2366193      -0.94730365E-01  -0.12889433E-02
  2175.9600        1.1828981        1.1497039        1.2568816        1.2236874      -0.87089001E-01   0.30323583E-01
  2176.4600        1.1498084        1.1354823        1.2254764        1.2111503      -0.64406782E-01   0.22243023E-01
  2176.9600        1.1184913        1.1216515        1.1958438        1.1990040      -0.64845977E-01  -0.20559441E-02
  2177.4600        1.0849624        1.1082075        1.1639994        1.1872445      -0.66462726E-01   0.13809197E-01
  2177.9600        1.0520286        1.0951462        1.1327501        1.1758678      -0.51036780E-01   0.16438005E-01
  2178.4600        1.0339256        1.0824638        1.1163317        1.1648699      -0.50024721E-01  -0.22278032E-02
  2178.9600        1.0020039        1.0701562        1.0860944        1.1542468      -0.53264584E-01   0.13901492E-01
  2179.4600       0.98066103        1.0582193        1.0664361        1.1439944      -0.36123230E-01   0.27895278E-01
  2179.9600       0.96588065        1.0466492        1.0533402        1.1341088      -0.25369306E-01   0.13573686E-01
  2180.4600       0.95529173        1.0354419        1.0444358        1.1245860      -0.22549543E-01   0.25142350E-03
  2180.9600       0.94333111        1.0245934        1.0341597        1.1154220      -0.25117882E-01   0.14894455E-02
  2181.4600       0.93017384        1.0140996        1.0226869        1.1066127      -0.21060098E-01   0.76445474E-02
  2181.9600       0.92227101        1.0039565        1.0164686        1.0981542      -0.17473335E-01   0.94617982E-02
  2182.4600       0.91270051       0.99416025        1.0085826        1.0900424      -0.11598299E-01   0.60309814E-02
  2182.9600       0.91067271       0.98470672        1.0082393        1.0822734      -0.11442353E-01  -0.10753924E-01
  2183.4600       0.90125816       0.97559193        1.0005093        1.0748431      -0.22352224E-01   0.14989933E-02
  2183.9600       0.88832049       0.96681189       0.98925610        1.0677475      -0.99433600E-02   0.99041763E-02
  2184.4600       0.89131480       0.95836258       0.99393491        1.0609827      -0.12448047E-01  -0.22914547E-02
  2184.9600       0.87587244       0.95024000       0.98017706        1.0545447      -0.12234815E-01   0.71257875E-02
  2185.4600       0.87907998       0.94244015       0.98506911        1.0484293      -0.53222597E-02   0.48820715E-02
  2185.9600       0.87055018       0.93495902       0.97822382        1.0426327      -0.73527432E-02   0.28643183E-04
  2186.4600       0.87172724       0.92779261       0.98108538        1.0371508      -0.52936165E-02  -0.39241161E-02
  2186.9600       0.86525657       0.92093691       0.97629921        1.0319796      -0.11276859E-01   0.69443807E-02
  2187.4600       0.86045038       0.91438793       0.97317753        1.0271151       0.16507641E-02   0.11520925E-01
  2187.9600       0.86690733       0.90814165       0.98131899        1.0225534       0.24406558E-03  -0.13449566E-01
  2188.4600       0.86069445       0.90219408       0.97679061        1.0182903      -0.11798802E-01  -0.64351685E-02
  2188.9600       0.85510853       0.89654120       0.97288920        1.0143219      -0.61911029E-02   0.84370088E-02
  2189.4600       0.85450334       0.89117902       0.97396852        1.0106442      -0.33617929E-02   0.62537617E-02
  2189.9600       0.85174674       0.88610352       0.97289642        1.0072532       0.62658754E-04   0.77591201E-02
  2190.4600       0.85456600       0.88131071       0.97740019        1.0041449       0.43973272E-02  -0.41691745E-02
  2190.9600       0.85614406       0.87679658       0.98066276        1.0013153      -0.41065157E-02  -0.11024443E-01
  2191.4600       0.85045949       0.87255713       0.97666269       0.99876037      -0.66271159E-02  -0.38190911E-02
  2191.9600       0.84951695       0.86858835       0.97740465       0.99647609      -0.79256068E-02   0.60468943E-04
  2192.4600       0.84253388       0.86488623       0.97210609       0.99445849      -0.65666469E-02   0.72467254E-02
  2192.9600       0.84295030       0.86144678       0.97420702       0.99270354      -0.67888144E-03   0.52830760E-03
  2193.4600       0.84185500       0.85826599       0.97479622       0.99120726      -0.60383393E-02   0.33003312E-02
  2193.9600       0.83691196       0.85533986       0.97153769       0.98996563       0.26214498E-02   0.10801663E-01
  2194.4600       0.84447645       0.85266437       0.98078668       0.98897465       0.47633234E-02  -0.13790102E-01
  2194.9600       0.84167528       0.85023554       0.97967003       0.98823032      -0.11168652E-01  -0.82396891E-02
  2195.4600       0.83330780       0.84804934       0.97298705       0.98772863      -0.34763657E-02   0.19840178E-01
  2195.9600       0.83819892       0.84610178       0.97956267       0.98746558       0.86715266E-02   0.70653186E-02
  2196.4600       0.84197932       0.84438886       0.98502758       0.98743716       0.35889529E-02  -0.10578882E-01
  2196.9600       0.84178787       0.84290656       0.98652064       0.98763937      -0.19073557E-02   0.23455585E-02
  2197.4600       0.84007197       0.84165090       0.98648924       0.98806821       0.59345113E-02   0.59132261E-02
  2197.9600       0.84772238       0.84061785       0.99582416       0.98871967       0.40058703E-02  -0.36408669E-02
  2198.4600       0.84407784       0.83980342       0.99386412       0.98958974       0.22936445E-02  -0.40609669E-02
  2198.9600       0.85001603       0.83920360        1.0014868       0.99067443      -0.55096555E-04  -0.74440451E-02
  2199.4600       0.84402274       0.83881439       0.99717804       0.99196972      -0.51504006E-02  -0.44556063E-03
  2199.9600       0.84486563       0.83863178       0.99970543       0.99347162      -0.50065719E-03   0.11302388E-01
  2200.4600       0.84352208       0.83865177        1.0000464       0.99517612       0.61519874E-02   0.53244495E-02
  2201.4600       0.85409361       0.83928354        1.0139869       0.99917690       0.74860171E-02  -0.25402260E-02
  2202.4600       0.85849412       0.84067765        1.0217565        1.0039400       0.10715353E-02  -0.67947996E-03
  2203.4600       0.85623668       0.84280208        1.0228680        1.0094335       0.61270572E-02   0.29009180E-02
  2204.4600       0.87074823       0.84562479        1.0407486        1.0156252       0.68733712E-02  -0.14218158E-02
  2205.4600       0.86998342       0.84911374        1.0433528        1.0224832       0.32834256E-02  -0.14242027E-03
  2206.4600       0.87731508       0.85323690        1.0540535        1.0299753       0.65885307E-02  -0.38031782E-03
  2207.4600       0.88316048       0.85796224        1.0632679        1.0380697       0.25227899E-02  -0.23391933E-02
  2208.4600       0.88236066       0.86325773        1.0658371        1.0467342       0.19101441E-02   0.25914125E-02
  2209.4600       0.88698077       0.86909132        1.0738262        1.0559368       0.77056148E-02   0.10796889E-02
  2210.4600       0.89777189       0.87543098        1.0879863        1.0656455       0.40695218E-02  -0.33623915E-02
  2211.4600       0.89511981       0.88224469        1.0887033        1.0758282       0.98083191E-03   0.14552328E-02
  2212.4600       0.89973356       0.88950040        1.0966860        1.0864529       0.69799875E-02   0.25046873E-02
  2213.4600       0.90907979       0.89716609        1.1094013        1.0974876       0.59902064E-02  -0.18816980E-02
  2214.4600       0.91171397       0.90520971        1.1154044        1.1089002       0.32165915E-02   0.63810647E-03
  2215.4600       0.91551297       0.91359924        1.1225725        1.1206588       0.72664194E-02   0.21068653E-02
  2216.4600       0.92624681       0.92230264        1.1366753        1.1327312       0.74303220E-02  -0.24983221E-03
  2217.4600       0.93037362       0.93128787        1.1441711        1.1450854       0.67667550E-02   0.19636493E-02
  2218.4600       0.93978032       0.94052290        1.1569468        1.1576895       0.11357621E-01   0.18458940E-03
  2219.4600       0.95308886       0.94997571        1.1736244        1.1705113       0.71359338E-02  -0.27043939E-02
  2220.4600       0.95405219       0.95961424        1.1779567        1.1835188       0.59488329E-02   0.26988244E-02
  2221.4600       0.96498652       0.96940648        1.1922601        1.1966801       0.12533583E-01   0.33671653E-02
  2222.4600       0.97911935       0.97932038        1.2097619        1.2099630       0.12683164E-01  -0.62298924E-03
  2223.4600       0.99035285       0.98932391        1.2243644        1.2233355       0.11287604E-01  -0.92533395E-03
  2224.4600        1.0016946       0.99938504        1.2390752        1.2367657       0.10832496E-01   0.67788867E-03
  2225.4600        1.0120178        1.0094717        1.2527674        1.2502214       0.12643381E-01   0.15666230E-02
  2226.4600        1.0269813        1.0195520        1.2710999        1.2636706       0.13965742E-01  -0.16796044E-02
  2227.4600        1.0399493        1.0295937        1.2874370        1.2770813       0.92841725E-02  -0.33170398E-02
  2228.4600        1.0455497        1.0395648        1.2964063        1.2904215       0.73316622E-02  -0.19461452E-02
  2229.4600        1.0546126        1.0494334        1.3088383        1.3036591       0.53918821E-02   0.61741973E-03
  2230.4600        1.0563334        1.0591674        1.3139281        1.3167622       0.85665016E-02   0.35756241E-02
  2231.4600        1.0717457        1.0687348        1.3327093        1.3296985       0.12543130E-01   0.30759596E-02
  2232.4600        1.0814197        1.0781035        1.3457524        1.3424362       0.14718421E-01  -0.51875988E-03
  2233.4600        1.1011825        1.0872414        1.3688842        1.3549432       0.11505611E-01  -0.47818203E-02
  2234.4600        1.1044309        1.0961167        1.3755016        1.3671874       0.51547802E-02  -0.24585399E-02
  2235.4600        1.1114921        1.1046971        1.3859318        1.3791369       0.65885307E-02   0.21012958E-02
  2236.4600        1.1176080        1.1129507        1.3954167        1.3907595       0.93573718E-02  -0.28165797E-03
  2237.4600        1.1302068        1.1208455        1.4113845        1.4020233       0.60252148E-02  -0.49528838E-02
  2238.4600        1.1296584        1.1283494        1.4142052        1.4128962      -0.54839582E-03  -0.65736106E-02
