# XDI/1.0 Athena/0.9.26
# Element.edge:                  K
# Element.symbol:                P
# Column.1:                      energy eV
# Column.2:                      norm
# Column.3:                      nbkg
# Column.4:                      flat
# Column.5:                      fbkg
# Column.6:                      nder
# Column.7:                      nsec
# Athena.e0:                     2154
# Athena.eshift:                 0
# Athena.rbkg:                   1.0
# Athena.importance:             1
# Athena.standard:               None
# Athena.bkg_kweight:            2
# Athena.edge_step:              0.0547504
# Athena.fixed_step:             no
# Athena.pre_edge_range:         -25.4 -7
# Athena.pre_edge_line:          2.228620 - 0.00102397 * E
# Athena.normalization_range:    28 51.6
# Athena.post_edge_polynomial:   0.523823 - 0.000207099 * E + 0 * E^2 + 0 * E^3
# Athena.spline_range_energy:    0.000 85.601
# Athena.clamps:                 0 24
# Athena.spline_range_k:         0.000 4.740
# Athena.kweight:                2
# Athena.window:                 hanning
# Athena.phase_correction:       no
# Athena.k_range:                2.740 3.000
# Athena.dk:                     1
# Athena.r_range:                1 3
# Athena.dr:                     0.0
# Athena.window:                 hanning
# Athena.plot_multiplier:        1
# Athena.y_offset:               0
# ///
#------------------------
#   e         norm        nbkg        flat        fbkg        nder        nsec
  2105.9000      -0.21255998      -0.21256016      -0.21256016      -0.21256016       0.29807821      -0.75666641E-01
  2107.9000       0.38359644       0.38359677       0.38359677       0.38359677       0.14674493      -0.79404016E-01
  2109.9000       0.37441974       0.37442005       0.37442005       0.37442005      -0.19537853E-01  -0.44765772E-01
  2111.9000       0.30544503       0.30544529       0.30544529       0.30544529      -0.32318160E-01  -0.17028514E-02
  2113.9000       0.24514710       0.24514731       0.24514731       0.24514731      -0.26349258E-01   0.26201145E-02
  2115.9000       0.20004800       0.20004817       0.20004817       0.20004817      -0.21837702E-01   0.20166776E-02
  2117.9000       0.15779629       0.15779643       0.15779643       0.15779643      -0.18282548E-01   0.20706692E-02
  2119.9000       0.12691781       0.12691791       0.12691791       0.12691791      -0.13555025E-01   0.23405197E-02
  2121.9000       0.10357619       0.10357628       0.10357628       0.10357628      -0.89204690E-02   0.77685097E-03
  2123.9000       0.91235930E-01   0.91236008E-01   0.91236008E-01   0.91236008E-01  -0.10447621E-01  -0.71365172E-03
  2125.9000       0.61785708E-01   0.61785761E-01   0.61785761E-01   0.61785761E-01  -0.11775076E-01   0.90075864E-03
  2127.9000       0.44135627E-01   0.44135665E-01   0.44135664E-01   0.44135665E-01  -0.68445864E-02   0.10901658E-02
  2129.9000       0.34407363E-01   0.34407392E-01   0.34407392E-01   0.34407392E-01  -0.74144128E-02  -0.47342080E-03
  2131.9000       0.14477976E-01   0.14477988E-01   0.14477988E-01   0.14477988E-01  -0.87382696E-02   0.16197630E-02
  2133.9000      -0.54571581E-03  -0.54571618E-03  -0.54571627E-03  -0.54571618E-03  -0.93536061E-03   0.23862100E-02
  2135.9000       0.10736533E-01   0.10736543E-01   0.10736542E-01   0.10736543E-01   0.80657039E-03  -0.16210804E-02
  2137.9000       0.26805658E-02   0.26805681E-02   0.26805680E-02   0.26805681E-02  -0.74196822E-02  -0.29721348E-02
  2139.9000      -0.18942195E-01  -0.18942211E-01  -0.18942211E-01  -0.18942211E-01  -0.11081969E-01  -0.28379594E-02
  2140.1000      -0.21699765E-01  -0.21699783E-01  -0.21699784E-01  -0.21699783E-01  -0.13663193E-01   0.47266250E-01
  2140.3000      -0.24407472E-01  -0.24407493E-01  -0.24407493E-01  -0.24407493E-01   0.78245314E-02   0.10132178
  2140.5000      -0.18569953E-01  -0.18569968E-01  -0.18569968E-01  -0.18569968E-01   0.26865518E-01   0.25207329E-01
  2140.7000      -0.13661265E-01  -0.13661277E-01  -0.13661277E-01  -0.13661277E-01   0.17907463E-01  -0.80162474E-01
  2140.9000      -0.11406967E-01  -0.11406977E-01  -0.11406977E-01  -0.11406977E-01  -0.51994720E-02  -0.77122088E-01
  2141.1000      -0.15741054E-01  -0.15741067E-01  -0.15741068E-01  -0.15741067E-01  -0.12941372E-01  -0.82716335E-01
  2141.3000      -0.16583516E-01  -0.16583530E-01  -0.16583530E-01  -0.16583530E-01  -0.38286006E-01   0.94237816E-02
  2141.5000      -0.31055456E-01  -0.31055483E-01  -0.31055483E-01  -0.31055483E-01  -0.91718597E-02   0.16817694
  2141.7000      -0.20252260E-01  -0.20252277E-01  -0.20252277E-01  -0.20252277E-01   0.28984770E-01  -0.20457482E-01
  2141.9000      -0.19461549E-01  -0.19461565E-01  -0.19461565E-01  -0.19461565E-01  -0.17354852E-01  -0.88104190E-01
  2142.1000      -0.27194201E-01  -0.27194224E-01  -0.27194224E-01  -0.27194224E-01  -0.62569063E-02   0.19506553
  2142.3000      -0.21964311E-01  -0.21964330E-01  -0.21964330E-01  -0.21964330E-01   0.60671361E-01   0.36327672E-01
  2142.5000      -0.29256568E-02  -0.29256592E-02  -0.29256593E-02  -0.29256592E-02   0.82741625E-02  -0.32601184
  2142.7000      -0.18654646E-01  -0.18654662E-01  -0.18654662E-01  -0.18654662E-01  -0.69733375E-01   0.27681852E-01
  2142.9000      -0.30819007E-01  -0.30819033E-01  -0.30819033E-01  -0.30819033E-01   0.19346903E-01   0.33487044
  2143.1000      -0.10915885E-01  -0.10915894E-01  -0.10915894E-01  -0.10915894E-01   0.64214802E-01  -0.69401032E-01
  2143.3000      -0.51330859E-02  -0.51330902E-02  -0.51330903E-02  -0.51330902E-02  -0.84135097E-02  -0.10921463
  2143.5000      -0.14281289E-01  -0.14281301E-01  -0.14281301E-01  -0.14281301E-01   0.20528948E-01  -0.12611199E-01
  2143.7000       0.30784934E-02   0.30784961E-02   0.30784960E-02   0.30784961E-02  -0.13457989E-01  -0.10332987
  2143.9000      -0.19664484E-01  -0.19664501E-01  -0.19664501E-01  -0.19664501E-01  -0.20802998E-01   0.19206727
  2144.1000      -0.52427056E-02  -0.52427100E-02  -0.52427101E-02  -0.52427100E-02   0.63368919E-01   0.71993134E-01
  2144.3000       0.56830832E-02   0.56830881E-02   0.56830880E-02   0.56830881E-02   0.79942561E-02  -0.19710433
  2144.5000      -0.20450032E-02  -0.20450049E-02  -0.20450050E-02  -0.20450049E-02  -0.15472813E-01  -0.85754552E-01
  2144.7000      -0.50604192E-03  -0.50604226E-03  -0.50604235E-03  -0.50604226E-03  -0.26307565E-01   0.10337313
  2144.9000      -0.12568029E-01  -0.12568040E-01  -0.12568040E-01  -0.12568040E-01   0.25876439E-01   0.19595662
  2145.1000       0.98445337E-02   0.98445421E-02   0.98445420E-02   0.98445421E-02   0.52075084E-01  -0.25600362E-01
  2145.3000       0.82620045E-02   0.82620116E-02   0.82620115E-02   0.82620116E-02   0.15636294E-01  -0.79620013E-01
  2145.5000       0.16099051E-01   0.16099065E-01   0.16099065E-01   0.16099065E-01   0.20227079E-01  -0.81365661E-01
  2145.7000       0.16352836E-01   0.16352850E-01   0.16352850E-01   0.16352850E-01  -0.16909970E-01  -0.14925107E-01
  2145.9000       0.93350633E-02   0.93350714E-02   0.93350713E-02   0.93350714E-02   0.14257036E-01   0.21025479
  2146.1000       0.22055650E-01   0.22055669E-01   0.22055669E-01   0.22055669E-01   0.67191947E-01  -0.27358453E-01
  2146.3000       0.36211842E-01   0.36211873E-01   0.36211873E-01   0.36211873E-01   0.33136550E-02  -0.19112093
  2146.5000       0.23381112E-01   0.23381132E-01   0.23381132E-01   0.23381132E-01  -0.92564252E-02   0.96645787E-01
  2146.7000       0.32509272E-01   0.32509300E-01   0.32509300E-01   0.32509300E-01   0.41971970E-01   0.16258692
  2146.9000       0.40169900E-01   0.40169934E-01   0.40169934E-01   0.40169934E-01   0.55778341E-01  -0.31831932E-01
  2147.1000       0.54820609E-01   0.54820655E-01   0.54820655E-01   0.54820655E-01   0.29239197E-01  -0.14650314
  2147.3000       0.51865579E-01   0.51865623E-01   0.51865623E-01   0.51865623E-01  -0.28229160E-02   0.36637829E-02
  2147.5000       0.53691442E-01   0.53691488E-01   0.53691488E-01   0.53691488E-01   0.30704710E-01   0.12060975
  2147.7000       0.64147463E-01   0.64147518E-01   0.64147518E-01   0.64147518E-01   0.45420983E-01   0.85347249E-01
  2147.9000       0.71859835E-01   0.71859896E-01   0.71859896E-01   0.71859896E-01   0.64843610E-01   0.30017678E-01
  2148.1000       0.90084907E-01   0.90084984E-01   0.90084984E-01   0.90084984E-01   0.57428054E-01  -0.62763758E-01
  2148.3000       0.94831057E-01   0.94831137E-01   0.94831137E-01   0.94831137E-01   0.39738107E-01   0.12499818
  2148.5000       0.10598015       0.10598024       0.10598024       0.10598024       0.10742733       0.12238816
  2148.7000       0.13780199       0.13780210       0.13780210       0.13780210       0.88693370E-01  -0.67485523E-01
  2148.9000       0.14145750       0.14145762       0.14145762       0.14145762       0.80433117E-01   0.63855187E-01
  2149.1000       0.16997523       0.16997538       0.16997538       0.16997538       0.11423544       0.16677113
  2149.3000       0.18715168       0.18715183       0.18715183       0.18715183       0.14714157       0.40091728
  2149.5000       0.22883186       0.22883206       0.22883206       0.22883206       0.27460236       0.62113592
  2149.7000       0.29699262       0.29699287       0.29699287       0.29699287       0.39559594       0.76884761
  2149.9000       0.38707024       0.38707056       0.38707056       0.38707056       0.58214140        1.6022639
  2150.1000       0.52984918       0.52984963       0.52984963       0.52984963        1.0365015        2.0249256
  2150.3000       0.80167083       0.80167151       0.80167151       0.80167151        1.3921116        1.1245123
  2150.5000        1.0866938        1.0866948        1.0866948        1.0866948        1.4863064        1.0030489
  2150.7000        1.3961934        1.3961946        1.3961946        1.3961946        1.7933312        2.4751892
  2150.9000        1.8040263        1.8040278        1.8040278        1.8040278        2.4763821        5.0825232
  2151.1000        2.3867462        2.3867482        2.3867482        2.3867482        3.8263405        5.8833801
  2151.3000        3.3345625        3.3345653        3.3345653        3.3345653        4.8297341        3.4211707
  2151.5000        4.3186399        4.3186435        4.3186435        4.3186435        5.1948088       -1.2727419
  2151.7000        5.4124860        5.4124906        5.4124906        5.4124906        4.3206374       -7.0640337
  2151.9000        6.0468948        6.0468999        6.0468999        6.0468999        2.3691953       -8.7835734
  2152.1000        6.3601641        6.3601695        6.3601695        6.3601695       0.80720801       -7.1859939
  2152.3000        6.3697780        6.3697834        6.3697834        6.3697834      -0.50520229       -5.7750819
  2152.5000        6.1580832        6.1580884        6.1580884        6.1580884       -1.5028247       -3.2802689
  2152.7000        5.7686481        5.7686530        5.7686530        5.7686530       -1.8173099      -0.57148050
  2152.9000        5.4311593        5.4311639        5.4311639        5.4311639       -1.7314169      -0.47609087
  2153.1000        5.0760813        5.0760856        5.0760856        5.0760856       -2.0077462       -1.4033379
  2153.3000        4.6280608        4.6280647        4.6280647        4.6280647       -2.2927521      -0.30849178
  2153.5000        4.1589805        4.1589840        4.1589840        4.1589840       -2.1311429       0.91687723
  2153.7000        3.7756036        3.7756068        3.7756068        3.7756068       -1.9260012       0.89100187
  2153.9000        3.3885800        3.3885829        3.3900740        3.3900740       -1.7747422        1.0628224
  2154.1000        3.0657068       0.89118506        3.0642165       0.88969222       -1.5008723        1.1661252
  2154.3000        2.7882311        1.1802542        2.7837566        1.1757774       -1.3082921       0.83247837
  2154.5000        2.5423899        1.2068319        2.5349312        1.1993711       -1.1678809       0.89339226
  2154.7000        2.3210788        1.2327303        2.3106359        1.2222855      -0.95093519        1.1221141
  2154.9000        2.1620158        1.2579568        2.1485889        1.2445280      -0.71903525       0.59660587
  2155.1000        2.0334647        1.2825188        2.0170536        1.2661059      -0.71229284       0.54316909E-01
  2155.3000        1.8770987        1.3064236        1.8577035        1.2870268      -0.69730849       0.78243312
  2155.5000        1.7545413        1.3296788        1.7321619        1.3072980      -0.39931959        1.0556067
  2155.7000        1.7173709        1.3522917        1.6920075        1.3269269      -0.27506581       0.12030381
  2155.9000        1.6445149        1.3742697        1.6161675        1.3459209      -0.35119807       0.21587724E-01
  2156.1000        1.5768916        1.3956202        1.5455602        1.3642874      -0.26643072       0.39808237
  2156.3000        1.5379426        1.4163507        1.5036272        1.3820339      -0.19196512       0.10869032
  2156.5000        1.5001056        1.4364684        1.4628061        1.3991676      -0.22295459       0.13332951
  2156.7000        1.4487608        1.4559809        1.4084773        1.4156961      -0.13863332       0.31770677
  2156.9000        1.4446523        1.4748955        1.4013847        1.4316267      -0.95871883E-01   0.22410982
  2157.1000        1.4104121        1.4932196        1.3641605        1.4469668      -0.48989389E-01   0.11376745
  2157.3000        1.4250565        1.5109606        1.3758210        1.4617238      -0.50364903E-01  -0.55721463E-01
  2157.5000        1.3902661        1.5281260        1.3380465        1.4759052      -0.71277974E-01   0.24844318E-01
  2157.7000        1.3965453        1.5447230        1.3413418        1.4895183      -0.40427176E-01   0.23120930
  2157.9000        1.3740952        1.5607593        1.3159076        1.5025705       0.21205747E-01   0.19833674
  2158.1000        1.4050276        1.5762420        1.3438561        1.5150693       0.38907520E-01  -0.93737364E-01
  2158.3000        1.3896582        1.5911787        1.3255027        1.5270220      -0.16289199E-01   0.19631575E-01
  2158.5000        1.3985119        1.6055768        1.3313724        1.5384361       0.46760150E-01   0.65919326E-01
  2158.7000        1.4083623        1.6194436        1.3382388        1.5493188       0.10078531E-01  -0.26796585E-01
  2158.9000        1.4025434        1.6327865        1.3294358        1.5596778       0.36041516E-01   0.92358950E-01
  2159.1000        1.4227789        1.6456130        1.3466874        1.5695203       0.47022111E-01  -0.13513817
  2159.3000        1.4213522        1.6579305        1.3422767        1.5788537      -0.18013751E-01  -0.12920477
  2159.5000        1.4155734        1.6697462        1.3335139        1.5876855      -0.46597960E-02   0.77770485E-01
  2159.7000        1.4194883        1.6810678        1.3344448        1.5960231       0.13094443E-01   0.77079019E-01
  2159.9000        1.4208112        1.6919025        1.3327837        1.6038738       0.26171812E-01   0.13732556E-01
  2160.4000        1.4378086        1.7169080        1.3423211        1.6214193       0.22707232E-01   0.38106058E-01
  2160.9000        1.4435184        1.7390326        1.3405710        1.6360839       0.64277870E-01   0.83206427E-01
  2161.4000        1.5020864        1.7583920        1.3916790        1.6479834       0.10591366      -0.18344325E-02
  2161.9000        1.5494321        1.7751020        1.4315647        1.6572334       0.62443438E-01  -0.19292117E-01
  2162.4000        1.5645299        1.7892782        1.4392025        1.6639496       0.86621542E-01   0.37226327E-01
  2162.9000        1.6360536        1.8010362        1.5032664        1.6682476       0.99669764E-01   0.38786898E-03
  2163.4000        1.6641996        1.8104917        1.5239524        1.6702431       0.87009411E-01   0.92362717E-02
  2163.9000        1.7230630        1.8177604        1.5753559        1.6700518       0.10890604       0.42102853E-01
  2164.4000        1.7731057        1.8229580        1.6179386        1.6677894       0.12911226      -0.17612642E-01
  2164.9000        1.8521753        1.8262000        1.6895483        1.6635714       0.91293394E-01  -0.66648589E-01
  2165.4000        1.8643991        1.8276022        1.6943121        1.6575137       0.62463675E-01  -0.10467860E-01
  2165.9000        1.9146390        1.8272803        1.7370920        1.6497317       0.80825534E-01  -0.19607511E-01
  2166.4000        1.9452246        1.8253498        1.7602177        1.6403413       0.42856164E-01  -0.55159002E-01
  2166.9000        1.9574951        1.8219266        1.7650282        1.6294580       0.25666532E-01  -0.16996391E-01
  2167.4000        1.9708911        1.8171261        1.7709643        1.6171976       0.25859773E-01   0.11709494E-01
  2167.9000        1.9833549        1.8110642        1.7759681        1.6036757       0.37376026E-01  -0.39318401E-01
  2168.4000        2.0082671        1.8038564        1.7934204        1.5890079      -0.13458628E-01  -0.57799346E-01
  2168.9000        1.9698963        1.7956185        1.7475894        1.5733100      -0.20423320E-01  -0.14348011E-01
  2169.4000        1.9878438        1.7864660        1.7580770        1.5566975      -0.27806639E-01  -0.48063535E-02
  2169.9000        1.9420896        1.7765147        1.7048628        1.5392863      -0.25229674E-01   0.15384167E-01
  2170.4000        1.9626142        1.7658803        1.7179274        1.5211918      -0.12422472E-01  -0.30197927E-01
  2170.9000        1.9296672        1.7546783        1.6775204        1.5025298      -0.55427601E-01  -0.39903236E-01
  2171.4000        1.9071866        1.7430245        1.6475797        1.4834160      -0.52325709E-01   0.25309383E-02
  2171.9000        1.8773414        1.7310345        1.6102746        1.4639661      -0.52896663E-01   0.95588262E-02
  2172.4000        1.8542899        1.7188240        1.5797631        1.4442956      -0.42766883E-01   0.41533908E-03
  2172.9000        1.8345746        1.7065086        1.5525877        1.4245202      -0.52481324E-01  -0.21717503E-01
  2173.4000        1.8018086        1.6942041        1.5123617        1.4047557      -0.64484386E-01   0.17907891E-01
  2173.9000        1.7700902        1.6820261        1.4731833        1.3851177      -0.34573433E-01   0.37131752E-02
  2174.4000        1.7672351        1.6700902        1.4628683        1.3657218      -0.60771211E-01  -0.53969259E-01
  2174.9000        1.7093190        1.6585121        1.3974921        1.3466838      -0.88542692E-01   0.59369379E-02
  2175.4000        1.6786924        1.6474074        1.3594055        1.3281191      -0.54834273E-01   0.51727377E-01
  2175.9000        1.6544847        1.6368610        1.3277378        1.3101127      -0.36815315E-01  -0.70941887E-02
  2176.4000        1.6418771        1.6268787        1.3076702        1.2926704      -0.61928461E-01  -0.17532606E-01
  2176.9000        1.5925562        1.6174537        1.2508893        1.2757854      -0.54347921E-01   0.80520987E-02
  2177.4000        1.5875292        1.6085793        1.2384023        1.2594510      -0.53876363E-01   0.24832218E-01
  2177.9000        1.5386799        1.6002488        1.1820929        1.2436606      -0.29515703E-01   0.53327656E-01
  2178.4000        1.5580135        1.5924555        1.1939666        1.2284073      -0.54870623E-03   0.72885250E-03
  2178.9000        1.5381312        1.5851927        1.1666242        1.2136844      -0.28786850E-01  -0.40466337E-01
  2179.4000        1.5292267        1.5784535        1.1502597        1.1994853      -0.41015043E-01  -0.27242445E-01
  2179.9000        1.4971161        1.5722314        1.1106892        1.1858031      -0.56029295E-01   0.19915418E-01
  2180.4000        1.4731974        1.5665195        1.0793104        1.1726313      -0.21099625E-01   0.38512435E-01
  2180.9000        1.4760165        1.5613112        1.0746695        1.1599630      -0.17516860E-01   0.10375514E-01
  2181.4000        1.4556805        1.5565997        1.0468735        1.1477915      -0.10724112E-01   0.27402790E-01
  2181.9000        1.4652924        1.5523783        1.0490255        1.1361101       0.98859302E-02   0.93674487E-02
  2182.4000        1.4655664        1.5486403        1.0418395        1.1249121      -0.13566631E-02  -0.49191745E-02
  2182.9000        1.4639357        1.5453789        1.0327488        1.1141908       0.49667557E-02  -0.63863589E-02
  2183.4000        1.4705332        1.5425875        1.0318863        1.1039394      -0.77430220E-02   0.40920762E-02
  2183.9000        1.4561927        1.5402593        1.0100858        1.0941512       0.90588319E-02   0.28349723E-01
  2184.4000        1.4795920        1.5383876        1.0260252        1.0848195       0.20606701E-01  -0.13301243E-01
  2184.9000        1.4767994        1.5369656        1.0157726        1.0759375      -0.42424113E-02  -0.18202573E-01
  2185.4000        1.4753496        1.5359867        1.0068628        1.0674986       0.24041281E-02   0.95693284E-02
  2185.9000        1.4792035        1.5354441        1.0032567        1.0594960       0.53269171E-02   0.35212498E-03
  2186.4000        1.4806765        1.5353311       0.99726971        1.0519230       0.27562531E-02  -0.11227233E-01
  2186.9000        1.4819598        1.5356409       0.99109298        1.0447729      -0.59003156E-02   0.49175489E-02
  2187.4000        1.4747762        1.5363669       0.97644941        1.0380389       0.76738021E-02   0.38841692E-01
  2187.9000        1.4896336        1.5375023       0.98384682        1.0317143       0.32941377E-01   0.16088928E-01
  2188.4000        1.5077176        1.5390404       0.99447084        1.0257924       0.23762730E-01  -0.44675143E-01
  2188.9000        1.5133963        1.5409745       0.99268959        1.0202665      -0.11733766E-01  -0.33417572E-01
  2189.4000        1.4959838        1.5432978       0.96781709        1.0151298      -0.96548420E-02   0.40248658E-01
  2189.9000        1.5037415        1.5460037       0.96811477        1.0103757       0.28514892E-01   0.33729825E-01
  2190.4000        1.5244987        1.5490853       0.98141203        1.0059974       0.24074983E-01  -0.17114509E-01
  2190.9000        1.5278165        1.5525361       0.97726979        1.0019881       0.11400384E-01  -0.11645567E-01
  2191.4000        1.5358991        1.5563492       0.97789245       0.99834122       0.12429416E-01  -0.17881133E-02
  2191.9000        1.5402459        1.5605179       0.97477924       0.99504994       0.96122703E-02   0.72566166E-02
  2192.4000        1.5455114        1.5650355       0.97258475       0.99210758       0.19686033E-01   0.10569539E-01
  2192.9000        1.5599319        1.5698953       0.97954532       0.98950739       0.20181810E-01  -0.36045551E-02
  2193.4000        1.5656932        1.5750906       0.97784660       0.98724267       0.16081478E-01  -0.34872958E-02
  2193.9000        1.5760134        1.5806146       0.98070683       0.98530668       0.16694514E-01   0.98759925E-02
  2194.4000        1.5823877        1.5864606       0.97962116       0.98369270       0.25957470E-01   0.14166222E-01
  2194.9000        1.6019709        1.5926219       0.99174435       0.98239401       0.30860736E-01  -0.79943823E-02
  2195.4000        1.6132484        1.5990917       0.99556194       0.98140389       0.17963088E-01  -0.98235181E-02
  2195.9000        1.6199339        1.6058634       0.99478748       0.98071560       0.21037218E-01   0.76620928E-02
  2196.4000        1.6342856        1.6129303        1.0016792       0.98032243       0.25625181E-01  -0.18687647E-01
  2196.9000        1.6455591        1.6202855        1.0054927       0.98021766       0.23495715E-02  -0.75007242E-02
  2197.4000        1.6366352        1.6279223       0.98910880       0.98039455       0.18124457E-01   0.26156536E-01
  2197.9000        1.6636836        1.6358342        1.0086972       0.98084639       0.28506107E-01  -0.12676846E-01
  2198.4000        1.6651413        1.6440142        1.0026950       0.98156645       0.54476102E-02  -0.36084528E-01
  2198.9000        1.6691312        1.6524558       0.99922484       0.98254801      -0.75784206E-02   0.98456366E-02
  2199.4000        1.6575629        1.6611521       0.98019655       0.98378434       0.15293247E-01   0.36359070E-01
  2199.9000        1.6844244        1.6700965       0.99959812       0.98526873       0.28780650E-01   0.48124174E-02
  2200.9000        1.7007339        1.6887025        1.0009876       0.98895475       0.22511873E-01  -0.27278484E-02
  2201.9000        1.7294482        1.7082200        1.0147820       0.99355230       0.23324953E-01  -0.51065794E-03
  2202.9000        1.7473838        1.7285952        1.0177976       0.99900757       0.21490557E-01  -0.18306243E-03
  2203.9000        1.7724293        1.7497744        1.0279232        1.0052668       0.22958828E-01   0.96784599E-03
  2204.9000        1.7933014        1.7717038        1.0338753        1.0122762       0.23426249E-01   0.84156391E-03
  2205.9000        1.8192818        1.7943295        1.0449357        1.0199819       0.24641956E-01  -0.24633452E-02
  2206.9000        1.8425853        1.8175977        1.0533193        1.0283302       0.18499559E-01  -0.44401921E-02
  2207.9000        1.8562809        1.8414548        1.0520949        1.0372673       0.15761572E-01   0.19595548E-02
  2208.9000        1.8741085        1.8658468        1.0550026        1.0467393       0.22418668E-01   0.98158926E-02
  2209.9000        1.9011182        1.8907201        1.0670924        1.0566926       0.35393357E-01   0.88845851E-03
  2210.9000        1.9448952        1.9160208        1.0959494        1.0670733       0.24195585E-01  -0.11952537E-01
  2211.9000        1.9495094        1.9416950        1.0856436        1.0778276       0.11488282E-01  -0.33105073E-02
  2212.9000        1.9678718        1.9676892        1.0890860        1.0889017       0.17574571E-01   0.74603410E-02
  2213.9000        1.9846586        1.9939493        1.0909528        1.1002419       0.26408964E-01   0.12713563E-01
  2214.9000        2.0206897        2.0204217        1.1120640        1.1117944       0.43001697E-01  -0.17906292E-02
  2215.9000        2.0706619        2.0470526        1.1471164        1.1235053       0.22827706E-01  -0.17243220E-01
  2216.9000        2.0663451        2.0737882        1.1278795        1.1353208       0.85152564E-02   0.56263742E-02
  2217.9000        2.0876925        2.1005746        1.1343069        1.1471873       0.34080454E-01   0.13197194E-01
  2218.9000        2.1345060        2.1273581        1.1662005        1.1590509       0.34909644E-01  -0.61183382E-02
  2219.9000        2.1575118        2.1540850        1.1742863        1.1708577       0.21843778E-01  -0.18273778E-02
  2220.9000        2.1781936        2.1807013        1.1800482        1.1825541       0.31254888E-01   0.53044590E-02
  2221.9000        2.2200215        2.2071534        1.2069562        1.1940862       0.32452696E-01  -0.83309960E-02
  2222.9000        2.2430990        2.2333874        1.2151137        1.2054003       0.14592896E-01  -0.12371904E-01
  2223.9000        2.2492073        2.2593496        1.2063021        1.2164424       0.77088885E-02   0.63116974E-02
  2224.9000        2.2585167        2.2849861        1.2006915        1.2271590       0.27216291E-01   0.17934233E-01
  2225.9000        2.3036399        2.3102432        1.2308947        1.2374961       0.43577354E-01   0.27199687E-02
  2226.9000        2.3456715        2.3350671        1.2580064        1.2474000       0.32656229E-01  -0.10604557E-01
  2227.9000        2.3689524        2.3594040        1.2663673        1.2568169       0.22368239E-01  -0.66302884E-02
  2228.9000        2.3904079        2.3832000        1.2729029        1.2656930       0.19395652E-01  -0.48705402E-02
  2229.9000        2.4077437        2.4064015        1.2753187        1.2739745       0.12627159E-01   0.45498259E-03
  2230.9000        2.4156622        2.4289546        1.2683173        1.2816076       0.20305617E-01   0.40247343E-02
  2231.9000        2.4483549        2.4508055        1.2860900        1.2885386       0.20676628E-01   0.12491679E-02
  2232.9000        2.4570155        2.4719005        1.2798306        1.2947135       0.22803953E-01   0.39089544E-02
  2233.9000        2.4939628        2.4921857        1.3018580        1.3000788       0.28494536E-01  -0.71203072E-02
  2234.9000        2.5140046        2.5116074        1.3069798        1.3045805       0.85633382E-02  -0.30752809E-02
  2235.9000        2.5110895        2.5301117        1.2891447        1.3081649       0.22343975E-01   0.10622635E-01
  2236.9000        2.5586925        2.5476450        1.3218279        1.3107781       0.29808608E-01  -0.51649031E-02
  2237.9000        2.5707067        2.5641533        1.3189221        1.3123665       0.12014169E-01  -0.17794439E-01
