# XDI/1.0 Athena/0.9.26
# Element.edge:                  K
# Element.symbol:                P
# Column.1:                      energy eV
# Column.2:                      norm
# Column.3:                      nbkg
# Column.4:                      flat
# Column.5:                      fbkg
# Column.6:                      nder
# Column.7:                      nsec
# Athena.e0:                     2154
# Athena.eshift:                 0
# Athena.rbkg:                   1.0
# Athena.importance:             1
# Athena.standard:               None
# Athena.bkg_kweight:            2
# Athena.edge_step:              1.1127105
# Athena.fixed_step:             no
# Athena.pre_edge_range:         -22.4 -8
# Athena.pre_edge_line:          -5.340181 + 0.00253029 * E
# Athena.normalization_range:    28 64.6
# Athena.post_edge_polynomial:   -6.631900 + 0.00364655 * E + 0 * E^2 + 0 * E^3
# Athena.spline_range_energy:    0.000 85.601
# Athena.clamps:                 0 24
# Athena.spline_range_k:         0.000 4.740
# Athena.kweight:                2
# Athena.window:                 hanning
# Athena.phase_correction:       no
# Athena.k_range:                2.740 3.000
# Athena.dk:                     1
# Athena.r_range:                1 3
# Athena.dr:                     0.0
# Athena.window:                 hanning
# Athena.plot_multiplier:        1
# Athena.y_offset:               0
# ///
#------------------------
#   e         norm        nbkg        flat        fbkg        nder        nsec
  2105.9000        1.3008552        1.3008552        1.3008552        1.3008552      -0.59020870       0.14649408
  2107.9000       0.12043783       0.12043783       0.12043783       0.12043783      -0.29722055       0.14632357
  2109.9000       0.11197304       0.11197304       0.11197304       0.11197304      -0.49144392E-02   0.72772324E-01
  2111.9000       0.10078007       0.10078007       0.10078007       0.10078007      -0.61312517E-02  -0.34508078E-04
  2113.9000       0.87448037E-01   0.87448034E-01   0.87448034E-01   0.87448034E-01  -0.50524716E-02   0.55651213E-03
  2115.9000       0.80570187E-01   0.80570184E-01   0.80570184E-01   0.80570184E-01  -0.39052032E-02   0.81808961E-04
  2117.9000       0.71827224E-01   0.71827222E-01   0.71827222E-01   0.71827222E-01  -0.47252357E-02  -0.20607287E-03
  2119.9000       0.61669244E-01   0.61669242E-01   0.61669242E-01   0.61669242E-01  -0.47294947E-02   0.17227887E-03
  2121.9000       0.52909246E-01   0.52909244E-01   0.52909244E-01   0.52909244E-01  -0.40361202E-02   0.89779645E-04
  2123.9000       0.45524763E-01   0.45524762E-01   0.45524762E-01   0.45524762E-01  -0.43703761E-02   0.12464945E-04
  2125.9000       0.35427741E-01   0.35427740E-01   0.35427740E-01   0.35427740E-01  -0.39862605E-02   0.31568466E-03
  2127.9000       0.29579721E-01   0.29579720E-01   0.29579720E-01   0.29579720E-01  -0.31076375E-02   0.15297336E-03
  2129.9000       0.22997191E-01   0.22997190E-01   0.22997190E-01   0.22997190E-01  -0.33743670E-02  -0.20904585E-04
  2131.9000       0.16082253E-01   0.16082253E-01   0.16082253E-01   0.16082253E-01  -0.31912558E-02   0.10101314E-03
  2133.9000       0.10232168E-01   0.10232168E-01   0.10232168E-01   0.10232168E-01  -0.29703145E-02   0.80990689E-04
  2135.9000       0.42009953E-02   0.42009952E-02   0.42009952E-02   0.42009952E-02  -0.28672930E-02   0.10467009E-03
  2137.9000      -0.12370042E-02  -0.12370041E-02  -0.12370041E-02  -0.12370041E-02  -0.25516341E-02   0.21529071E-03
  2139.9000      -0.60055411E-02  -0.60055409E-02  -0.60055409E-02  -0.60055409E-02  -0.20061302E-02   0.26555536E-02
  2140.1000      -0.56504906E-02  -0.56504904E-02  -0.56504904E-02  -0.56504904E-02   0.32905838E-02   0.95198150E-02
  2140.3000      -0.46893076E-02  -0.46893075E-02  -0.46893075E-02  -0.46893075E-02   0.18017958E-02   0.22948805E-02
  2140.5000      -0.49297723E-02  -0.49297722E-02  -0.49297722E-02  -0.49297722E-02   0.42085360E-02   0.22805798E-02
  2140.7000      -0.30058932E-02  -0.30058931E-02  -0.30058931E-02  -0.30058931E-02   0.27140277E-02  -0.22765424E-01
  2140.9000      -0.38441612E-02  -0.38441611E-02  -0.38441611E-02  -0.38441611E-02  -0.48976334E-02  -0.12034566E-01
  2141.1000      -0.49649466E-02  -0.49649464E-02  -0.49649464E-02  -0.49649464E-02  -0.20997987E-02   0.15002943E-01
  2141.3000      -0.46840807E-02  -0.46840806E-02  -0.46840806E-02  -0.46840806E-02   0.11035436E-02   0.99118327E-03
  2141.5000      -0.45235291E-02  -0.45235290E-02  -0.45235290E-02  -0.45235290E-02  -0.17033254E-02  -0.80984342E-02
  2141.7000      -0.53654109E-02  -0.53654107E-02  -0.53654107E-02  -0.53654107E-02  -0.21358301E-02  -0.11381836E-02
  2141.9000      -0.53778612E-02  -0.53778610E-02  -0.53778610E-02  -0.53778610E-02  -0.21585988E-02   0.12669569E-02
  2142.1000      -0.62288504E-02  -0.62288502E-02  -0.62288502E-02  -0.62288502E-02  -0.16290473E-02   0.10328220E-01
  2142.3000      -0.60294801E-02  -0.60294799E-02  -0.60294799E-02  -0.60294799E-02   0.19726893E-02   0.13349093E-01
  2142.5000      -0.54397747E-02  -0.54397745E-02  -0.54397745E-02  -0.54397745E-02   0.37105897E-02  -0.30804790E-02
  2142.7000      -0.45452442E-02  -0.45452441E-02  -0.45452441E-02  -0.45452441E-02   0.74049768E-03  -0.33580950E-02
  2142.9000      -0.51435756E-02  -0.51435754E-02  -0.51435754E-02  -0.51435754E-02   0.23673517E-02   0.60440476E-02
  2143.1000      -0.35983035E-02  -0.35983034E-02  -0.35983034E-02  -0.35983034E-02   0.31581167E-02  -0.48012097E-02
  2143.3000      -0.38803289E-02  -0.38803288E-02  -0.38803288E-02  -0.38803288E-02   0.44686784E-03   0.67318276E-02
  2143.5000      -0.34195564E-02  -0.34195563E-02  -0.34195563E-02  -0.34195563E-02   0.58508478E-02   0.75535766E-02
  2143.7000      -0.15399898E-02  -0.15399898E-02  -0.15399897E-02  -0.15399898E-02   0.34682985E-02  -0.94408319E-02
  2143.9000      -0.20322370E-02  -0.20322369E-02  -0.20322369E-02  -0.20322369E-02   0.20745150E-02   0.28001950E-02
  2144.1000      -0.71018381E-03  -0.71018379E-03  -0.71018379E-03  -0.71018379E-03   0.45883765E-02   0.30953358E-02
  2144.3000      -0.19688639E-03  -0.19688639E-03  -0.19688639E-03  -0.19688639E-03   0.33126493E-02   0.21020349E-02
  2144.5000       0.61487590E-03   0.61487588E-03   0.61487588E-03   0.61487588E-03   0.54291904E-02   0.11913578E-01
  2144.7000       0.19747898E-02   0.19747897E-02   0.19747897E-02   0.19747897E-02   0.80780803E-02   0.39578917E-02
  2144.9000       0.38461080E-02   0.38461079E-02   0.38461079E-02   0.38461079E-02   0.70123471E-02  -0.13842381E-02
  2145.1000       0.47797286E-02   0.47797285E-02   0.47797285E-02   0.47797285E-02   0.75243851E-02   0.76813783E-02
  2145.3000       0.68558621E-02   0.68558619E-02   0.68558619E-02   0.68558619E-02   0.10084898E-01   0.15370351E-02
  2145.5000       0.88136880E-02   0.88136877E-02   0.88136877E-02   0.88136877E-02   0.81391991E-02  -0.45844754E-02
  2145.7000       0.10111542E-01   0.10111541E-01   0.10111541E-01   0.10111541E-01   0.82511083E-02   0.25306538E-01
  2145.9000       0.12114131E-01   0.12114131E-01   0.12114131E-01   0.12114131E-01   0.18261814E-01   0.23693422E-01
  2146.1000       0.17416267E-01   0.17416267E-01   0.17416267E-01   0.17416267E-01   0.17728477E-01   0.91812968E-02
  2146.3000       0.19205522E-01   0.19205522E-01   0.19205522E-01   0.19205522E-01   0.21934333E-01   0.41511304E-01
  2146.5000       0.26190001E-01   0.26190000E-01   0.26190000E-01   0.26190000E-01   0.34332999E-01   0.28138497E-01
  2146.7000       0.32938722E-01   0.32938721E-01   0.32938721E-01   0.32938721E-01   0.33189732E-01   0.49234113E-01
  2146.9000       0.39465894E-01   0.39465892E-01   0.39465892E-01   0.39465892E-01   0.54026644E-01   0.13182517
  2147.1000       0.54549379E-01   0.54549377E-01   0.54549377E-01   0.54549377E-01   0.85919801E-01   0.11950705
  2147.3000       0.73833814E-01   0.73833812E-01   0.73833812E-01   0.73833812E-01   0.10182947       0.10368538
  2147.5000       0.95281166E-01   0.95281162E-01   0.95281162E-01   0.95281162E-01   0.12739396       0.99185786E-01
  2147.7000       0.12479140       0.12479139       0.12479139       0.12479139       0.14150378       0.33328414E-01
  2147.9000       0.15188268       0.15188267       0.15188267       0.15188267       0.14072532      -0.42484715E-01
  2148.1000       0.18108152       0.18108152       0.18108152       0.18108152       0.12450989      -0.62020065E-01
  2148.3000       0.20168664       0.20168663       0.20168663       0.20168663       0.11591729      -0.34134217E-01
  2148.5000       0.22744844       0.22744844       0.22744844       0.22744844       0.11085621      -0.60641337E-01
  2148.7000       0.24602912       0.24602911       0.24602911       0.24602911       0.91660760E-01  -0.44338466E-01
  2148.9000       0.26411275       0.26411274       0.26411274       0.26411274       0.93120821E-01   0.47420916E-01
  2149.1000       0.28327745       0.28327744       0.28327744       0.28327744       0.11062913       0.93426146E-01
  2149.3000       0.30836440       0.30836439       0.30836439       0.30836439       0.13049128       0.17984541
  2149.5000       0.33547396       0.33547395       0.33547395       0.33547395       0.18256729       0.47174210
  2149.7000       0.38139131       0.38139130       0.38139130       0.38139130       0.31918812       0.63734240
  2149.9000       0.46314921       0.46314919       0.46314919       0.46314919       0.43750425       0.62872246
  2150.1000       0.55639302       0.55639300       0.55639300       0.55639300       0.57067711        1.1549693
  2150.3000       0.69142005       0.69142003       0.69142003       0.69142003       0.89949198        1.6651628
  2150.5000       0.91618981       0.91618978       0.91618978       0.91618978        1.2367422        1.5273359
  2150.7000        1.1861169        1.1861169        1.1861169        1.1861169        1.5104264        1.6837111
  2150.9000        1.5203604        1.5203603        1.5203603        1.5203603        1.9102267        4.4320823
  2151.1000        1.9502076        1.9502075        1.9502075        1.9502075        3.2832593        3.8289088
  2151.3000        2.8336641        2.8336640        2.8336640        2.8336640        3.4417902      -0.13714821
  2151.5000        3.3269237        3.3269236        3.3269236        3.3269236        3.2284000       0.51505818
  2151.7000        4.1250241        4.1250239        4.1250239        4.1250239        3.6478135      -0.91322611
  2151.9000        4.7860491        4.7860489        4.7860489        4.7860489        2.8631096       -4.1199683
  2152.1000        5.2702679        5.2702677        5.2702677        5.2702677        1.9998261       -4.1007619
  2152.3000        5.5859795        5.5859793        5.5859793        5.5859793        1.2228048       -3.7711984
  2152.5000        5.7593898        5.7593896        5.7593896        5.7593896       0.49134679       -3.2800626
  2152.7000        5.7825182        5.7825181        5.7825181        5.7825181      -0.89220234E-01   -3.1254851
  2152.9000        5.7237017        5.7237015        5.7237015        5.7237015      -0.75884726       -3.0869890
  2153.1000        5.4789793        5.4789792        5.4789792        5.4789792       -1.3240158       -3.3157609
  2153.3000        5.1940954        5.1940952        5.1940952        5.1940952       -2.0851516       -2.1446903
  2153.5000        4.6449187        4.6449185        4.6449185        4.6449185       -2.1818920       0.26265818
  2153.7000        4.3213386        4.3213384        4.3213384        4.3213384       -1.9800884      -0.30799791
  2153.9000        3.8528833        3.8528832        3.8529836        3.8529836       -2.3050911      -0.35662074
  2154.1000        3.3993021       0.86100748        3.3992017       0.86090719       -2.1227367        1.1565351
  2154.3000        3.0037887        1.0852168        3.0034877        1.0849159       -1.8424771        1.4949520
  2154.5000        2.6623113        1.1165353        2.6618096        1.1160337       -1.5247558        1.5094448
  2154.7000        2.3938863        1.1469981        2.3931841        1.1462959       -1.2386992        1.3170991
  2154.9000        2.1668316        1.1766144        2.1659287        1.1757115      -0.99791619        1.2134126
  2155.1000        1.9947199        1.2053933        1.9936163        1.2042898      -0.75333415       0.99178091
  2155.3000        1.8654980        1.2333440        1.8641938        1.2320399      -0.60120383       0.63134685
  2155.5000        1.7542383        1.2604758        1.7527335        1.2589710      -0.50079541       0.53772692
  2155.7000        1.6651798        1.2867977        1.6634744        1.2850923      -0.38611306       0.55140973
  2155.9000        1.5997931        1.3123190        1.5978870        1.3104130      -0.28023151       0.41848825
  2156.1000        1.5530872        1.3370489        1.5509805        1.3349422      -0.21871776       0.27116331
  2156.3000        1.5123060        1.3609964        1.5099986        1.3586891      -0.17176619       0.24825191
  2156.5000        1.4843807        1.3841709        1.4818727        1.3816630      -0.11941699       0.17241851
  2156.7000        1.4645392        1.4065815        1.4618306        1.4038729      -0.10279879       0.76945556E-01
  2156.9000        1.4432612        1.4282374        1.4403519        1.4253282      -0.88638771E-01   0.13803007
  2157.1000        1.4290837        1.4491477        1.4259738        1.4460378      -0.47586762E-01   0.13827159
  2157.3000        1.4242265        1.4693216        1.4209159        1.4660111      -0.33330133E-01   0.70987694E-01
  2157.5000        1.4157516        1.4887684        1.4122405        1.4852572      -0.19191684E-01   0.30557702E-01
  2157.7000        1.4165498        1.5074971        1.4128380        1.5037854      -0.21107052E-01   0.10111570E-01
  2157.9000        1.4073088        1.5255171        1.4033964        1.5216046      -0.15147056E-01   0.11087734
  2158.1000        1.4104910        1.5428373        1.4063779        1.5387243       0.23243883E-01   0.75766565E-01
  2158.3000        1.4166064        1.5594672        1.4122926        1.5551535       0.15159570E-01   0.49451319E-02
  2158.5000        1.4165548        1.5754157        1.4120405        1.5709014       0.25221936E-01   0.12397655E-01
  2158.7000        1.4266952        1.5906921        1.4219801        1.5859771       0.20118632E-01  -0.10779421E-01
  2158.9000        1.4246023        1.6053056        1.4196866        1.6003900       0.20910167E-01   0.72475615E-01
  2159.1000        1.4350592        1.6192654        1.4299429        1.6141491       0.49108878E-01   0.56964504E-01
  2159.3000        1.4442458        1.6325806        1.4389289        1.6272637       0.43695969E-01  -0.43491772E-01
  2159.5000        1.4525376        1.6452604        1.4470200        1.6397429       0.31712169E-01  -0.14516355E-01
  2159.7000        1.4569307        1.6573140        1.4512125        1.6515959       0.37889427E-01  -0.11692892E-01
  2159.9000        1.4676934        1.6687506        1.4617745        1.6628318       0.27035012E-01  -0.19480681E-01
  2160.4000        1.4758552        1.6947029        1.4694348        1.6882825       0.24252951E-01   0.34386047E-02
  2160.9000        1.4919463        1.7169997        1.4850243        1.7100777       0.30473617E-01   0.18076580E-01
  2161.4000        1.5063288        1.7357843        1.4989052        1.7283607       0.42329531E-01   0.13932106E-01
  2161.9000        1.5342759        1.7512003        1.5263506        1.7432751       0.44405722E-01   0.11438645E-01
  2162.4000        1.5507345        1.7633911        1.5423077        1.7549643       0.53768176E-01   0.19333152E-01
  2162.9000        1.5880440        1.7725001        1.5791156        1.7635717       0.63738874E-01   0.82376326E-02
  2163.4000        1.6144734        1.7786708        1.6050434        1.7692408       0.62005809E-01  -0.39353454E-02
  2163.9000        1.6500498        1.7820466        1.6401182        1.7721150       0.59803529E-01   0.24992126E-02
  2164.4000        1.6742770        1.7827710        1.6638437        1.7723378       0.64505021E-01   0.11446733E-01
  2164.9000        1.7145549        1.7809874        1.7036200        1.7700527       0.71250262E-01  -0.62133863E-02
  2165.4000        1.7455272        1.7768393        1.7340908        1.7654030       0.58291635E-01  -0.20679234E-01
  2165.9000        1.7728465        1.7704701        1.7609085        1.7585322       0.50571028E-01  -0.12581350E-01
  2166.4000        1.7960982        1.7620233        1.7836586        1.7495837       0.45710285E-01  -0.17310433E-01
  2166.9000        1.8185568        1.7516423        1.8056156        1.7387011       0.33260595E-01  -0.23328171E-01
  2167.4000        1.8293588        1.7394705        1.8159160        1.7260278       0.22382114E-01  -0.12440882E-01
  2167.9000        1.8409389        1.7256514        1.8269945        1.7117071       0.20819713E-01  -0.54795926E-02
  2168.4000        1.8501785        1.7103285        1.8357325        1.6958826       0.16902521E-01  -0.18276992E-01
  2168.9000        1.8578414        1.6936452        1.8428938        1.6786977       0.25427208E-02  -0.13326198E-01
  2169.4000        1.8527213        1.6757449        1.8372721        1.6602958       0.35763230E-02  -0.11209924E-01
  2169.9000        1.8614177        1.6567711        1.8454670        1.6408204      -0.86672035E-02  -0.41697819E-01
  2170.4000        1.8440541        1.6368673        1.8276017        1.6204149      -0.38121496E-01  -0.46677102E-01
  2170.9000        1.8232962        1.6161768        1.8063423        1.5992228      -0.55344306E-01  -0.44413800E-01
  2171.4000        1.7887098        1.5948431        1.7712542        1.5773876      -0.82535296E-01  -0.26204661E-01
  2171.9000        1.7407609        1.5730097        1.7228038        1.5550526      -0.81548966E-01   0.66193320E-02
  2172.4000        1.7071608        1.5508200        1.6887020        1.5323613      -0.75915964E-01  -0.50040870E-02
  2172.9000        1.6648450        1.5284175        1.6458846        1.5094572      -0.86553053E-01  -0.45510491E-02
  2173.4000        1.6206077        1.5059456        1.6011458        1.4864837      -0.80467014E-01   0.86833910E-02
  2173.9000        1.5843780        1.4835478        1.5644144        1.4635843      -0.77869662E-01  -0.59597714E-02
  2174.4000        1.5427381        1.4613675        1.5222729        1.4409024      -0.86426785E-01  -0.12576228E-01
  2174.9000        1.4979512        1.4395481        1.4769844        1.4185814      -0.90445890E-01   0.54717738E-02
  2175.4000        1.4522922        1.4182330        1.4308239        1.3967647      -0.80955011E-01   0.17897468E-01
  2175.9000        1.4169962        1.3975277        1.3950262        1.3755578      -0.72548422E-01   0.13274792E-02
  2176.4000        1.3797438        1.3774399        1.3572722        1.3549685      -0.79627532E-01  -0.25262637E-02
  2176.9000        1.3373686        1.3579623        1.3143955        1.3349892      -0.75074685E-01   0.14094502E-01
  2177.4000        1.3046691        1.3390871        1.2811944        1.3156124      -0.65533030E-01   0.10246691E-01
  2177.9000        1.2718356        1.3208068        1.2478593        1.2968305      -0.64827995E-01   0.10675643E-01
  2178.4000        1.2398411        1.3031138        1.2153632        1.2786359      -0.54857386E-01   0.17145431E-01
  2178.9000        1.2169782        1.2860006        1.1919987        1.2610211      -0.47682564E-01   0.34984842E-02
  2179.4000        1.1921585        1.2694595        1.1666774        1.2439785      -0.51358902E-01   0.12376894E-01
  2179.9000        1.1656193        1.2534831        1.1396366        1.2275004      -0.35305670E-01   0.26123328E-01
  2180.4000        1.1568529        1.2380637        1.1303686        1.2115794      -0.25235575E-01   0.47227021E-03
  2180.9000        1.1403837        1.2231938        1.1133979        1.1962079      -0.34833399E-01   0.12246672E-02
  2181.4000        1.1220195        1.2088657        1.0945320        1.1813783      -0.24010907E-01   0.20380863E-01
  2181.9000        1.1163728        1.1950720        1.0883838        1.1670830      -0.14452536E-01   0.77513426E-03
  2182.4000        1.1075669        1.1818050        1.0790762        1.1533144      -0.23235773E-01  -0.25718281E-02
  2182.9000        1.0931371        1.1690572        1.0641448        1.1400650      -0.17024364E-01   0.10216674E-01
  2183.4000        1.0905426        1.1568210        1.0610487        1.1273272      -0.13019099E-01  -0.49454914E-02
  2183.9000        1.0801180        1.1450889        1.0501225        1.1150935      -0.21969855E-01  -0.31266894E-02
  2184.4000        1.0685727        1.1338532        1.0380756        1.1033562      -0.16145789E-01   0.89264012E-02
  2184.9000        1.0639722        1.1231064        1.0329735        1.0921077      -0.13043454E-01   0.55788996E-02
  2185.4000        1.0555292        1.1128408        1.0240290        1.0813406      -0.10566889E-01   0.63019089E-02
  2185.9000        1.0534053        1.1030491        1.0214035        1.0710473      -0.67415453E-02   0.10933662E-02
  2186.4000        1.0487877        1.0937235        1.0162843        1.0612201      -0.94735228E-02  -0.11188895E-02
  2186.9000        1.0439318        1.0848565        1.0109267        1.0518515      -0.78604347E-02  -0.49677793E-02
  2187.4000        1.0409273        1.0764405        1.0074206        1.0429339      -0.14441302E-01  -0.33152380E-02
  2187.9000        1.0294905        1.0684680       0.99548224        1.0344598      -0.11175673E-01   0.55292910E-02
  2188.4000        1.0297516        1.0609313       0.99524177        1.0264215      -0.89120111E-02  -0.20142706E-02
  2188.9000        1.0205785        1.0538230       0.98556704        1.0188116      -0.13189943E-01   0.39570042E-03
  2189.4000        1.0165616        1.0471353       0.98104863        1.0116224      -0.85163107E-02   0.89943434E-02
  2189.9000        1.0120621        1.0408609       0.97604753        1.0048463      -0.41956000E-02   0.10688675E-01
  2190.4000        1.0123660        1.0349920       0.97584984       0.99847584       0.21723639E-02   0.41593929E-02
  2190.9000        1.0142345        1.0295212       0.97721671       0.99250339      -0.36207063E-04  -0.22897241E-02
  2191.4000        1.0123298        1.0244407       0.97481044       0.98692138      -0.11736025E-03  -0.32026301E-02
  2191.9000        1.0141171        1.0197432       0.97609615       0.98172224      -0.32388371E-02  -0.23582954E-02
  2192.4000        1.0090910        1.0154210       0.97056841       0.97689840      -0.24756557E-02  -0.11380319E-02
  2192.9000        1.0116415        1.0114664       0.97261731       0.97244228      -0.43768690E-02  -0.11775750E-02
  2193.4000        1.0047141        1.0078721       0.96518835       0.96834632      -0.36532307E-02   0.74962897E-02
  2193.9000        1.0079883        1.0046303       0.96796088       0.96460294       0.31194207E-02  -0.11990541E-02
  2194.4000        1.0078336        1.0017335       0.96730458       0.96120456      -0.48522847E-02  -0.51465320E-02
  2194.9000        1.0031360       0.99917416       0.96210541       0.95814362      -0.20271113E-02   0.12065942E-01
  2195.4000        1.0058064       0.99694468       0.96427428       0.95541255       0.72136574E-02   0.40297994E-02
  2195.9000        1.0103496       0.99503749       0.96831587       0.95300376       0.20026881E-02  -0.77474781E-02
  2196.4000        1.0078091       0.99344502       0.96527377       0.95090969      -0.53382079E-03   0.80571724E-02
  2196.9000        1.0098158       0.99215969       0.96677886       0.94912277       0.10059860E-01   0.70931300E-02
  2197.4000        1.0178690       0.99117394       0.97433044       0.94763541       0.65593092E-02  -0.16245286E-01
  2197.9000        1.0163751       0.99048018       0.97233497       0.94644006      -0.61854258E-02  -0.11739802E-01
  2198.4000        1.0116836       0.99007085       0.96714182       0.94552914      -0.51804923E-02   0.63649981E-02
  2198.9000        1.0111946       0.98993838       0.96615129       0.94489507       0.17957234E-03   0.90011736E-02
  2199.4000        1.0118631       0.99007519       0.96631820       0.94453028       0.38206813E-02   0.49780245E-02
  2199.9000        1.0150153       0.99047371       0.96896878       0.94442721       0.51575969E-02   0.34786228E-02
  2200.9000        1.0195995       0.99202559       0.97254981       0.94497590       0.90386155E-02   0.12995294E-03
  2201.9000        1.0330925       0.99453344       0.98503962       0.94648056       0.54175028E-02  -0.51031020E-02
  2202.9000        1.0304345       0.99793669       0.98137843       0.94888061      -0.11675885E-02  -0.19698745E-02
  2203.9000        1.0307574        1.0021747       0.98069806       0.95211547       0.14777537E-02   0.25073009E-02
  2204.9000        1.0333900        1.0071870       0.98232755       0.95612456       0.38470134E-02   0.19688635E-02
  2205.9000        1.0384514        1.0129130       0.98638570       0.96084731       0.54154807E-02   0.75062204E-03
  2206.9000        1.0442210        1.0192920       0.99115213       0.96622312       0.53482574E-02   0.51001587E-05
  2207.9000        1.0491479        1.0262635       0.99507583       0.97219143       0.54256810E-02  -0.53493251E-03
  2208.9000        1.0550724        1.0337669       0.99999710       0.97869164       0.42783924E-02   0.76673135E-03
  2209.9000        1.0577047        1.0417416        1.0016262       0.98566319       0.69591437E-02   0.22153112E-03
  2210.9000        1.0689907        1.0501271        1.0119090       0.99304549       0.47214547E-02  -0.15895645E-02
  2211.9000        1.0671476        1.0588628        1.0090628        1.0007780       0.37800148E-02   0.17465685E-02
  2212.9000        1.0765507        1.0678880        1.0174626        1.0088000       0.82145916E-02   0.23104393E-02
  2213.9000        1.0835768        1.0771423        1.0234856        1.0170511       0.84008934E-02   0.16413973E-02
  2214.9000        1.0933525        1.0865650        1.0322581        1.0254706       0.11497386E-01   0.31349126E-03
  2215.9000        1.1065716        1.0960955        1.0444739        1.0339980       0.90278759E-02  -0.19244225E-02
  2216.9000        1.1114082        1.1056734        1.0483074        1.0425726       0.76485414E-02  -0.54852544E-03
  2217.9000        1.1218686        1.1152379        1.0577646        1.0511339       0.79308250E-02  -0.10711457E-02
  2218.9000        1.1272699        1.1247285        1.0621627        1.0596213       0.55062500E-02  -0.57726158E-03
  2219.9000        1.1328811        1.1340847        1.0667708        1.0679743       0.67763019E-02  -0.31399678E-02
  2220.9000        1.1408225        1.1432458        1.0737089        1.0761322      -0.77368552E-03  -0.43544796E-02
  2221.9000        1.1313338        1.1521513        1.0632170        1.0840345      -0.19326573E-02   0.19821419E-02
  2222.9000        1.1369572        1.1607405        1.0678372        1.0916206       0.31905982E-02   0.22588985E-02
  2223.9000        1.1377150        1.1689530        1.0675918        1.0988299       0.25851397E-02   0.14232364E-02
  2224.9000        1.1421274        1.1767281        1.0710011        1.1056018       0.60370710E-02   0.19978468E-02
  2225.9000        1.1497891        1.1840053        1.0776596        1.1118758       0.65808333E-02  -0.53558407E-03
  2226.9000        1.1552891        1.1907239        1.0821564        1.1175912       0.49659028E-02   0.52713623E-03
  2227.9000        1.1597209        1.1968235        1.0855850        1.1226876       0.76351057E-02   0.77645985E-03
  2228.9000        1.1705593        1.2022433        1.0954202        1.1271042       0.65188225E-02  -0.35774356E-02
  2229.9000        1.1727586        1.2069229        1.0966162        1.1307806       0.48023456E-03  -0.24110495E-02
  2230.9000        1.1715198        1.2108016        1.0943743        1.1336561       0.16967235E-02   0.19798052E-02
  2231.9000        1.1761520        1.2138189        1.0980033        1.1356703       0.44398450E-02   0.22457100E-02
  2232.9000        1.1803995        1.2159142        1.1012476        1.1367624       0.61881435E-02  -0.13024502E-02
  2233.9000        1.1885283        1.2170269        1.1083732        1.1368719       0.18349446E-02  -0.16167728E-03
  2234.9000        1.1840694        1.2170965        1.1029111        1.1359382       0.58647889E-02   0.51707072E-03
  2235.9000        1.2002579        1.2160623        1.1180964        1.1339008       0.28690860E-02  -0.15031763E-02
  2236.9000        1.1898075        1.2138637        1.1066429        1.1306991       0.28584363E-02   0.66490567E-02
  2237.9000        1.2059747        1.2104403        1.1218069        1.1262725       0.16167199E-01   0.13308763E-01
