# XDI/1.0 Athena/0.9.26
# Element.edge:                  K
# Element.symbol:                P
# Column.1:                      energy eV
# Column.2:                      xmu
# Column.3:                      bkg
# Column.4:                      pre_edge
# Column.5:                      post_edge
# Column.6:                      der
# Column.7:                      sec
# Column.8:                      i0
# Column.9:                      chi(e)
# Athena.e0:                     2154
# Athena.eshift:                 0.46
# Athena.rbkg:                   1.0
# Athena.importance:             1
# Athena.standard:               None
# Athena.bkg_kweight:            2
# Athena.edge_step:              0.2983560
# Athena.fixed_step:             no
# Athena.pre_edge_range:         -18 -9
# Athena.pre_edge_line:          3.474744 - 0.00152487 * E
# Athena.normalization_range:    36.5 52
# Athena.post_edge_polynomial:   3.262909 - 0.00128801 * E + 0 * E^2 + 0 * E^3
# Athena.spline_range_energy:    0.000 85.601
# Athena.clamps:                 0 24
# Athena.spline_range_k:         0.000 4.740
# Athena.kweight:                2
# Athena.window:                 hanning
# Athena.phase_correction:       no
# Athena.k_range:                2.740 3.000
# Athena.dk:                     1
# Athena.r_range:                1 3
# Athena.dr:                     0.0
# Athena.window:                 hanning
# Athena.plot_multiplier:        1
# Athena.y_offset:               0
# ///
#------------------------
#   e         xmu        bkg        pre_edge        post_edge        der        sec        i0        chie
  2125.4600       0.24632900       0.24632900       0.23369297       0.52528905      -0.18290000E-02  -0.37737500E-03    1.0000000        0.0000000
  2127.4600       0.24267100       0.24267100       0.23064323       0.52271303      -0.25837500E-02  -0.25068750E-03    1.0000000        0.0000000
  2129.4600       0.23599400       0.23599400       0.22759349       0.52013700      -0.28317500E-02  -0.15312500E-04    1.0000000        0.0000000
  2131.4600       0.23134400       0.23134400       0.22454375       0.51756097      -0.26450000E-02   0.75250000E-04    1.0000000        0.0000000
  2133.4600       0.22541400       0.22541400       0.22149400       0.51498495      -0.25307500E-02   0.87687500E-04    1.0000000        0.0000000
  2135.4600       0.22122100       0.22122100       0.21844426       0.51240892      -0.22942500E-02   0.79500000E-04    1.0000000        0.0000000
  2137.4600       0.21623700       0.21623700       0.21539452       0.50983290      -0.22127500E-02   0.93145833E-04    1.0000000        0.0000000
  2139.4600       0.21237000       0.21237000       0.21234478       0.50725687      -0.19216667E-02   0.47452778E-03    1.0000000        0.0000000
  2140.4600       0.21047200       0.21047200       0.21081991       0.50596886      -0.78916667E-03  -0.58986111E-02    1.0000000        0.0000000
  2140.6600       0.21142300       0.21142300       0.21051494       0.50571125      -0.90000000E-02  -0.22086111E-01    1.0000000        0.0000000
  2140.7600       0.20777200       0.20777200       0.21036245       0.50558245      -0.74150000E-02   0.98000000E-01    1.0000000        0.0000000
  2140.8600       0.20994000       0.20994000       0.21020996       0.50545365       0.10600000E-01   0.77500000E-02    1.0000000        0.0000000
  2140.9600       0.20989200       0.20989200       0.21005748       0.50532485      -0.58650000E-02  -0.51850000E-01    1.0000000        0.0000000
  2141.0600       0.20876700       0.20876700       0.20990499       0.50519605       0.23000000E-03   0.46175000E-01    1.0000000        0.0000000
  2141.1600       0.20993800       0.20993800       0.20975250       0.50506725       0.33700000E-02   0.10475000E-01    1.0000000        0.0000000
  2141.2600       0.20944100       0.20944100       0.20960002       0.50493845       0.23250000E-02  -0.44700000E-01    1.0000000        0.0000000
  2141.3600       0.21040300       0.21040300       0.20944753       0.50480964      -0.55700000E-02  -0.59650000E-01    1.0000000        0.0000000
  2141.4600       0.20832700       0.20832700       0.20929504       0.50468084      -0.96050000E-02   0.23375000E-01    1.0000000        0.0000000
  2141.5600       0.20848200       0.20848200       0.20914255       0.50455204      -0.89500000E-03   0.82250000E-02    1.0000000        0.0000000
  2141.6600       0.20814800       0.20814800       0.20899007       0.50442324      -0.79600000E-02  -0.18500000E-02    1.0000000        0.0000000
  2141.7600       0.20689000       0.20689000       0.20883758       0.50429444      -0.12650000E-02   0.54925000E-01    1.0000000        0.0000000
  2141.8600       0.20789500       0.20789500       0.20868509       0.50416564       0.30250000E-02   0.52700000E-01    1.0000000        0.0000000
  2141.9600       0.20749500       0.20749500       0.20853261       0.50403684       0.92750000E-02  -0.54000000E-02    1.0000000        0.0000000
  2142.0600       0.20975000       0.20975000       0.20838012       0.50390804       0.19450000E-02  -0.81400000E-01    1.0000000        0.0000000
  2142.1600       0.20788400       0.20788400       0.20822763       0.50377923      -0.70050000E-02  -0.29175000E-01    1.0000000        0.0000000
  2142.2600       0.20834900       0.20834900       0.20807515       0.50365043      -0.38900000E-02   0.16100000E-01    1.0000000        0.0000000
  2142.3600       0.20710600       0.20710600       0.20792266       0.50352163      -0.37850000E-02   0.28825000E-01    1.0000000        0.0000000
  2142.4600       0.20759200       0.20759200       0.20777017       0.50339283       0.18750000E-02  -0.39575000E-01    1.0000000        0.0000000
  2142.5600       0.20748100       0.20748100       0.20761768       0.50326403      -0.11700000E-01  -0.37375000E-01    1.0000000        0.0000000
  2142.6600       0.20525200       0.20525200       0.20746520       0.50313523      -0.56000000E-02   0.14115000        1.0000000        0.0000000
  2142.7600       0.20636100       0.20636100       0.20731271       0.50300643       0.16530000E-01   0.78175000E-01    1.0000000        0.0000000
  2142.8600       0.20855800       0.20855800       0.20716022       0.50287762       0.10035000E-01  -0.11260000        1.0000000        0.0000000
  2142.9600       0.20836800       0.20836800       0.20700774       0.50274882      -0.59900000E-02  -0.98425000E-01    1.0000000        0.0000000
  2143.0600       0.20736000       0.20736000       0.20685525       0.50262002      -0.96500000E-02  -0.14225000E-01    1.0000000        0.0000000
  2143.1600       0.20643800       0.20643800       0.20670276       0.50249122      -0.88350000E-02   0.16975000E-01    1.0000000        0.0000000
  2143.2600       0.20559300       0.20559300       0.20655027       0.50236242      -0.62550000E-02   0.40050000E-01    1.0000000        0.0000000
  2143.3600       0.20518700       0.20518700       0.20639779       0.50223362      -0.82500000E-03   0.53050000E-01    1.0000000        0.0000000
  2143.4600       0.20542800       0.20542800       0.20624530       0.50210482       0.43550000E-02   0.15650000E-01    1.0000000        0.0000000
  2143.5600       0.20605800       0.20605800       0.20609281       0.50197602       0.23050000E-02  -0.95000000E-03    1.0000000        0.0000000
  2143.6600       0.20588900       0.20588900       0.20594033       0.50184721       0.41650000E-02   0.25000000E-02    1.0000000        0.0000000
  2143.7600       0.20689100       0.20689100       0.20578784       0.50171841       0.28050000E-02  -0.47900000E-01    1.0000000        0.0000000
  2143.8600       0.20645000       0.20645000       0.20563535       0.50158961      -0.54150000E-02  -0.54150000E-01    1.0000000        0.0000000
  2143.9600       0.20580800       0.20580800       0.20548287       0.50146081      -0.80250000E-02   0.99250000E-02    1.0000000        0.0000000
  2144.0600       0.20484500       0.20484500       0.20533038       0.50133201      -0.34300000E-02   0.41725000E-01    1.0000000        0.0000000
  2144.1600       0.20512200       0.20512200       0.20517789       0.50120321       0.32000000E-03   0.16850000E-01    1.0000000        0.0000000
  2144.2600       0.20490900       0.20490900       0.20502540       0.50107441      -0.60000000E-04   0.31925000E-01    1.0000000        0.0000000
  2144.3600       0.20511000       0.20511000       0.20487292       0.50094561       0.67050000E-02  -0.85250000E-02    1.0000000        0.0000000
  2144.4600       0.20625000       0.20625000       0.20472043       0.50081680      -0.17650000E-02  -0.44650000E-01    1.0000000        0.0000000
  2144.5600       0.20475700       0.20475700       0.20456794       0.50068800      -0.22250000E-02   0.18500000E-01    1.0000000        0.0000000
  2144.6600       0.20580500       0.20580500       0.20441546       0.50055920       0.19350000E-02  -0.53750000E-02    1.0000000        0.0000000
  2144.7600       0.20514400       0.20514400       0.20426297       0.50043040      -0.33000000E-02  -0.31500000E-02    1.0000000        0.0000000
  2144.8600       0.20514500       0.20514500       0.20411048       0.50030160       0.13050000E-02   0.53250000E-02    1.0000000        0.0000000
  2144.9600       0.20540500       0.20540500       0.20395800       0.50017280      -0.22350000E-02   0.34750000E-02    1.0000000        0.0000000
  2145.0600       0.20469800       0.20469800       0.20380551       0.50004400       0.20000000E-02   0.20275000E-01    1.0000000        0.0000000
  2145.1600       0.20580500       0.20580500       0.20365302       0.49991519       0.18200000E-02  -0.19025000E-01    1.0000000        0.0000000
  2145.2600       0.20506200       0.20506200       0.20350053       0.49978639      -0.18050000E-02   0.27250000E-01    1.0000000        0.0000000
  2145.3600       0.20544400       0.20544400       0.20334805       0.49965759       0.72700000E-02   0.22275000E-01    1.0000000        0.0000000
  2145.4600       0.20651600       0.20651600       0.20319556       0.49952879       0.26500000E-02  -0.44600000E-01    1.0000000        0.0000000
  2145.5600       0.20597400       0.20597400       0.20304307       0.49939999      -0.16500000E-02  -0.55350000E-01    1.0000000        0.0000000
  2145.6600       0.20618600       0.20618600       0.20289059       0.49927119      -0.84200000E-02   0.37000000E-02    1.0000000        0.0000000
  2145.7600       0.20429000       0.20429000       0.20273810       0.49914239      -0.91000000E-03   0.74375000E-01    1.0000000        0.0000000
  2145.8600       0.20600400       0.20600400       0.20258561       0.49901359       0.64550000E-02  -0.35575000E-01    1.0000000        0.0000000
  2145.9600       0.20558100       0.20558100       0.20243312       0.49888478      -0.80250000E-02  -0.18000000E-02    1.0000000        0.0000000
  2146.0600       0.20439900       0.20439900       0.20228064       0.49875598       0.60950000E-02   0.79650000E-01    1.0000000        0.0000000
  2146.1600       0.20680000       0.20680000       0.20212815       0.49862718       0.79050000E-02  -0.20400000E-01    1.0000000        0.0000000
  2146.2600       0.20598000       0.20598000       0.20197566       0.49849838       0.20150000E-02   0.30250000E-02    1.0000000        0.0000000
  2146.3600       0.20720300       0.20720300       0.20182318       0.49836958       0.85100000E-02  -0.63750000E-02    1.0000000        0.0000000
  2146.4600       0.20768200       0.20768200       0.20167069       0.49824078       0.74000000E-03  -0.72325000E-01    1.0000000        0.0000000
  2146.5600       0.20735100       0.20735100       0.20151820       0.49811198      -0.59550000E-02  -0.28500000E-02    1.0000000        0.0000000
  2146.6600       0.20649100       0.20649100       0.20136572       0.49798318       0.17000000E-03   0.63450000E-01    1.0000000        0.0000000
  2146.7600       0.20738500       0.20738500       0.20121323       0.49785437       0.67350000E-02   0.76275000E-01    1.0000000        0.0000000
  2146.8600       0.20783800       0.20783800       0.20106074       0.49772557       0.15425000E-01   0.19575000E-01    1.0000000        0.0000000
  2146.9600       0.21047000       0.21047000       0.20090825       0.49759677       0.10650000E-01  -0.44550000E-01    1.0000000        0.0000000
  2147.0600       0.20996800       0.20996800       0.20075577       0.49746797       0.65150000E-02  -0.62300000E-01    1.0000000        0.0000000
  2147.1600       0.21177300       0.21177300       0.20060328       0.49733917      -0.18100000E-02  -0.87200000E-01    1.0000000        0.0000000
  2147.2600       0.20960600       0.20960600       0.20045079       0.49721037      -0.10925000E-01   0.52250000E-01    1.0000000        0.0000000
  2147.3600       0.20958800       0.20958800       0.20029831       0.49708157       0.86400000E-02   0.12717500        1.0000000        0.0000000
  2147.4600       0.21133400       0.21133400       0.20014582       0.49695276       0.14510000E-01   0.10000000E-03    1.0000000        0.0000000
  2147.5600       0.21249000       0.21249000       0.19999333       0.49682396       0.86600000E-02  -0.33325000E-01    1.0000000        0.0000000
  2147.6600       0.21306600       0.21306600       0.19984085       0.49669516       0.78450000E-02   0.21225000E-01    1.0000000        0.0000000
  2147.7600       0.21405900       0.21405900       0.19968836       0.49656636       0.12905000E-01  -0.17625000E-01    1.0000000        0.0000000
  2147.8600       0.21564700       0.21564700       0.19953587       0.49643756       0.43200000E-02  -0.44925000E-01    1.0000000        0.0000000
  2147.9600       0.21492300       0.21492300       0.19938338       0.49630876       0.39200000E-02   0.55300000E-01    1.0000000        0.0000000
  2148.0600       0.21643100       0.21643100       0.19923090       0.49617996       0.15380000E-01   0.12550000E-01    1.0000000        0.0000000
  2148.1600       0.21799900       0.21799900       0.19907841       0.49605116       0.64300000E-02  -0.20100000E-01    1.0000000        0.0000000
  2148.2600       0.21771700       0.21771700       0.19892592       0.49592235       0.11360000E-01   0.96575000E-01    1.0000000        0.0000000
  2148.3600       0.22027100       0.22027100       0.19877344       0.49579355       0.25745000E-01   0.11000000E-01    1.0000000        0.0000000
  2148.4600       0.22286600       0.22286600       0.19862095       0.49566475       0.13560000E-01  -0.88825000E-01    1.0000000        0.0000000
  2148.5600       0.22298300       0.22298300       0.19846846       0.49553595       0.79800000E-02   0.36775000E-01    1.0000000        0.0000000
  2148.6600       0.22446200       0.22446200       0.19831597       0.49540715       0.20915000E-01   0.79100000E-01    1.0000000        0.0000000
  2148.7600       0.22716600       0.22716600       0.19816349       0.49527835       0.23800000E-01   0.57200000E-01    1.0000000        0.0000000
  2148.8600       0.22922200       0.22922200       0.19801100       0.49514955       0.32355000E-01   0.27125000E-01    1.0000000        0.0000000
  2148.9600       0.23363700       0.23363700       0.19785851       0.49502074       0.29225000E-01  -0.39450000E-01    1.0000000        0.0000000
  2149.0600       0.23506700       0.23506700       0.19770603       0.49489194       0.24465000E-01  -0.90750000E-02    1.0000000        0.0000000
  2149.1600       0.23853000       0.23853000       0.19755354       0.49476314       0.27410000E-01   0.88775000E-01    1.0000000        0.0000000
  2149.2600       0.24054900       0.24054900       0.19740105       0.49463434       0.42220000E-01   0.14107500        1.0000000        0.0000000
  2149.3600       0.24697400       0.24697400       0.19724857       0.49450554       0.55625000E-01   0.34350000E-01    1.0000000        0.0000000
  2149.4600       0.25167400       0.25167400       0.19709608       0.49437674       0.49090000E-01  -0.50675000E-01    1.0000000        0.0000000
  2149.5600       0.25679200       0.25679200       0.19694359       0.49424794       0.45490000E-01   0.66025000E-01    1.0000000        0.0000000
  2149.6600       0.26077200       0.26077200       0.19679110       0.49411914       0.62295000E-01   0.22370000        1.0000000        0.0000000
  2149.7600       0.26925100       0.26925100       0.19663862       0.49399033       0.90230000E-01   0.17885000        1.0000000        0.0000000
  2149.8600       0.27881800       0.27881800       0.19648613       0.49386153       0.98065000E-01   0.79700000E-01    1.0000000        0.0000000
  2149.9600       0.28886400       0.28886400       0.19633364       0.49373273       0.10617000       0.16412500        1.0000000        0.0000000
  2150.0600       0.30005200       0.30005200       0.19618116       0.49360393       0.13089000       0.38432500        1.0000000        0.0000000
  2150.1600       0.31504200       0.31504200       0.19602867       0.49347513       0.18303500       0.48162500        1.0000000        0.0000000
  2150.2600       0.33665900       0.33665900       0.19587618       0.49334633       0.22721500       0.43492500        1.0000000        0.0000000
  2150.3600       0.36048500       0.36048500       0.19572370       0.49321753       0.27002000       0.57940000        1.0000000        0.0000000
  2150.4600       0.39066300       0.39066300       0.19557121       0.49308873       0.34309500       0.63197500        1.0000000        0.0000000
  2150.5600       0.42910400       0.42910400       0.19541872       0.49295992       0.39641500       0.51545000        1.0000000        0.0000000
  2150.6600       0.46994600       0.46994600       0.19526623       0.49283112       0.44618500       0.58037500        1.0000000        0.0000000
  2150.7600       0.51834100       0.51834100       0.19511375       0.49270232       0.51249000       0.67895000        1.0000000        0.0000000
  2150.8600       0.57244400       0.57244400       0.19496126       0.49257352       0.58197500       0.59820000        1.0000000        0.0000000
  2150.9600       0.63473600       0.63473600       0.19480877       0.49244472       0.63213000       0.70027500        1.0000000        0.0000000
  2151.0600       0.69887000       0.69887000       0.19465629       0.49231592       0.72203000        1.3237750        1.0000000        0.0000000
  2151.1600       0.77914200       0.77914200       0.19450380       0.49218712       0.89688500        1.7551000        1.0000000        0.0000000
  2151.2600       0.87824700       0.87824700       0.19435131       0.49205831        1.0730500        1.9186500        1.0000000        0.0000000
  2151.3600       0.99375200       0.99375200       0.19419882       0.49192951        1.2806150        2.2612000        1.0000000        0.0000000
  2151.4600        1.1343700        1.1343700       0.19404634       0.49180071        1.5252900        2.6804250        1.0000000        0.0000000
  2151.5600        1.2988100        1.2988100       0.19389385       0.49167191        1.8167000        2.1258000        1.0000000        0.0000000
  2151.6600        1.4977100        1.4977100       0.19374136       0.49154311        1.9504500       0.89875000        1.0000000        0.0000000
  2151.7600        1.6889000        1.6889000       0.19358888       0.49141431        1.9964500       0.14350000        1.0000000        0.0000000
  2151.8600        1.8970000        1.8970000       0.19343639       0.49128551        1.9791500       -1.6455000        1.0000000        0.0000000
  2151.9600        2.0847300        2.0847300       0.19328390       0.49115671        1.6673500       -3.8930000        1.0000000        0.0000000
  2152.0600        2.2304700        2.2304700       0.19313142       0.49102790        1.2005500       -4.1847500        1.0000000        0.0000000
  2152.1600        2.3248400        2.3248400       0.19297893       0.49089910       0.83040000       -3.9087500        1.0000000        0.0000000
  2152.2600        2.3965500        2.3965500       0.19282644       0.49077030       0.41880000       -3.6395000        1.0000000        0.0000000
  2152.3600        2.4086000        2.4086000       0.19267395       0.49064150       0.10250000       -2.3642500        1.0000000        0.0000000
  2152.4600        2.4170500        2.4170500       0.19252147       0.49051270      -0.54050000E-01   -2.0860000        1.0000000        0.0000000
  2152.5600        2.3977900        2.3977900       0.19236898       0.49038390      -0.31470000       -2.2522500        1.0000000        0.0000000
  2152.6600        2.3541100        2.3541100       0.19221649       0.49025510      -0.50450000       -1.8155000        1.0000000        0.0000000
  2152.7600        2.2968900        2.2968900       0.19206401       0.49012630      -0.67780000       -1.5680000        1.0000000        0.0000000
  2152.8600        2.2185500        2.2185500       0.19191152       0.48999749      -0.81810000       -1.1302500        1.0000000        0.0000000
  2152.9600        2.1332700        2.1332700       0.19175903       0.48986869      -0.90385000       -1.0755000        1.0000000        0.0000000
  2153.0600        2.0377800        2.0377800       0.19160655       0.48973989       -1.0332000      -0.65800000        1.0000000        0.0000000
  2153.1600        1.9266300        1.9266300       0.19145406       0.48961109       -1.0354500       0.12575000        1.0000000        0.0000000
  2153.2600        1.8306900        1.8306900       0.19130157       0.48948229       -1.0080500       0.21425000        1.0000000        0.0000000
  2153.3600        1.7250200        1.7250200       0.19114908       0.48935349      -0.99260000       0.59425000        1.0000000        0.0000000
  2153.4600        1.6321700        1.6321700       0.19099660       0.48922469      -0.88920000       0.79700000        1.0000000        0.0000000
  2153.5600        1.5471800        1.5471800       0.19084411       0.48909588      -0.83320000       0.58000000        1.0000000        0.0000000
  2153.6600        1.4655300        1.4655300       0.19069162       0.48896708      -0.77320000       0.78700000        1.0000000        0.0000000
  2153.7600        1.3925400        1.3925400       0.19053914       0.48883828      -0.67580000       0.95225000        1.0000000        0.0000000
  2153.8600        1.3303700        1.3303700       0.19038665       0.48870948      -0.58275000       0.83375000        1.0000000        0.0000000
  2153.9600        1.2759900        1.2759900       0.19023416       0.48858068      -0.50905000       0.80400000        1.0000000        0.0000000
  2154.0600        1.2285600       0.62344010       0.19008167       0.48845188      -0.42195000       0.90825000        1.0000000        2.0281808
  2154.1600        1.1916000       0.62654403       0.18992919       0.48832308      -0.32740000       0.60200000        1.0000000        1.8938985
  2154.2600        1.1630800       0.62959663       0.18977670       0.48819428      -0.30155000       0.16475000        1.0000000        1.7880765
  2154.3600        1.1312900       0.63259820       0.18962421       0.48806547      -0.29445000       0.35400000        1.0000000        1.6714656
  2154.4600        1.1041900       0.63554902       0.18947173       0.48793667      -0.23075000       0.47850000        1.0000000        1.5707443
  2154.5600        1.0851400       0.63844938       0.18931924       0.48780787      -0.19875000       0.35425000        1.0000000        1.4971732
  2154.6600        1.0644400       0.64129957       0.18916675       0.48767907      -0.15990000       0.35150000        1.0000000        1.4182401
  2154.7600        1.0531600       0.64409987       0.18901427       0.48755027      -0.12845000       0.80000000E-02    1.0000000        1.3710471
  2154.8600        1.0387500       0.64685057       0.18886178       0.48742147      -0.15830000      -0.20650000        1.0000000        1.3135296
  2154.9600        1.0215000       0.64955197       0.18870929       0.48729267      -0.16975000       0.38525000E-01    1.0000000        1.2466585
  2155.0600        1.0048000       0.65220434       0.18855680       0.48716386      -0.15059500       0.14417500        1.0000000        1.1817951
  2155.1600       0.99138100       0.65480798       0.18840432       0.48703506      -0.14091500      -0.44625000E-01    1.0000000        1.1280920
  2155.2600       0.97661700       0.65736318       0.18825183       0.48690626      -0.15952000      -0.68400000E-01    1.0000000        1.0700432
  2155.3600       0.95947700       0.65987022       0.18809934       0.48677746      -0.15459500      -0.86425000E-01    1.0000000        1.0041923
  2155.4600       0.94569800       0.66232938       0.18794686       0.48664866      -0.17680500      -0.22442500        1.0000000       0.94976678
  2155.5600       0.92411600       0.66474097       0.18779437       0.48651986      -0.19948000       0.96250000E-02    1.0000000       0.86934746
  2155.6600       0.90580200       0.66710526       0.18764188       0.48639106      -0.17488000       0.14442500        1.0000000       0.80004002
  2155.7600       0.88914000       0.66942255       0.18748940       0.48626226      -0.17059500       0.83000000E-01    1.0000000       0.73642713
  2155.8600       0.87168300       0.67169311       0.18733691       0.48613345      -0.15828000       0.11225000E-01    1.0000000       0.67030623
  2155.9600       0.85748400       0.67391725       0.18718442       0.48600465      -0.16835000      -0.10290000        1.0000000       0.61526080
  2156.0600       0.83801300       0.67609524       0.18703193       0.48587585      -0.17886000      -0.41250000E-01    1.0000000       0.54269985
  2156.1600       0.82171200       0.67822738       0.18687945       0.48574705      -0.17660000       0.12162500        1.0000000       0.48091748
  2156.2600       0.80269300       0.68031396       0.18672696       0.48561825      -0.15453500       0.21070000        1.0000000       0.41017792
  2156.3600       0.79080500       0.68235525       0.18657447       0.48548945      -0.13446000       0.29375000E-01    1.0000000       0.36349109
  2156.4600       0.77580100       0.68435155       0.18642199       0.48536065      -0.14866000       0.24300000E-01    1.0000000       0.30651117
  2156.5600       0.76107300       0.68630315       0.18626950       0.48523185      -0.12960000       0.13492500        1.0000000       0.25060614
  2156.6600       0.74988100       0.68821034       0.18611701       0.48510304      -0.12167500       0.45050000E-01    1.0000000       0.20670160
  2156.7600       0.73673800       0.69007340       0.18596452       0.48497424      -0.12059000       0.74475000E-01    1.0000000       0.15640579
  2156.8600       0.72576300       0.69189261       0.18581204       0.48484544      -0.10678000       0.12692500        1.0000000       0.11352340
  2156.9600       0.71538200       0.69366828       0.18565955       0.48471664      -0.95205000E-01   0.78500000E-01    1.0000000       0.72777894E-01
  2157.0600       0.70672200       0.69540068       0.18550706       0.48458784      -0.91080000E-01   0.78125000E-01    1.0000000       0.37945673E-01
  2157.1600       0.69716600       0.69709011       0.18535458       0.48445904      -0.79580000E-01   0.14657500        1.0000000       0.25437067E-03
  2157.2600       0.69080600       0.69873685       0.18520209       0.48433024      -0.61765000E-01   0.86925000E-01    1.0000000      -0.26581819E-01
  2157.3600       0.68481300       0.70034118       0.18504960       0.48420143      -0.62195000E-01  -0.19175000E-01    1.0000000      -0.52045821E-01
  2157.4600       0.67836700       0.70190341       0.18489712       0.48407263      -0.65600000E-01   0.58150000E-01    1.0000000      -0.78886996E-01
  2157.5600       0.67169300       0.70342381       0.18474463       0.48394383      -0.50565000E-01   0.70525000E-01    1.0000000      -0.10635218
  2157.6600       0.66825400       0.70490267       0.18459214       0.48381503      -0.51495000E-01  -0.12900000        1.0000000      -0.12283539
  2157.7600       0.66139400       0.70634029       0.18443965       0.48368623      -0.76365000E-01  -0.14910000        1.0000000      -0.15064651
  2157.8600       0.65298100       0.70773695       0.18428717       0.48355743      -0.81315000E-01   0.91450000E-01    1.0000000      -0.18352554
  2157.9600       0.64513100       0.70909293       0.18413468       0.48342863      -0.58075000E-01   0.15275000        1.0000000      -0.21438123
  2158.0600       0.64136600       0.71040852       0.18398219       0.48329983      -0.50765000E-01  -0.40825000E-01    1.0000000      -0.23140988
  2158.1600       0.63497800       0.71168402       0.18382971       0.48317102      -0.66240000E-01  -0.82000000E-01    1.0000000      -0.25709563
  2158.2600       0.62811800       0.71291972       0.18367722       0.48304222      -0.67165000E-01   0.87600000E-01    1.0000000      -0.28422996
  2158.3600       0.62154500       0.71411588       0.18352473       0.48291342      -0.48720000E-01   0.12497500        1.0000000      -0.31026989
  2158.4600       0.61837400       0.71527282       0.18337225       0.48278462      -0.42170000E-01  -0.46425000E-01    1.0000000      -0.32477584
  2158.5600       0.61311100       0.71639081       0.18321976       0.48265582      -0.58005000E-01  -0.56725000E-01    1.0000000      -0.34616301
  2158.6600       0.60677300       0.71747014       0.18306727       0.48252702      -0.53515000E-01  -0.23025000E-01    1.0000000      -0.37102368
  2158.7600       0.60240800       0.71851110       0.18291478       0.48239822      -0.62610000E-01  -0.48925000E-01    1.0000000      -0.38914285
  2158.8600       0.59425100       0.71951398       0.18276230       0.48226942      -0.63300000E-01   0.88900000E-01    1.0000000      -0.41984403
  2158.9600       0.58974800       0.72047907       0.18260981       0.48214061      -0.44830000E-01   0.18220000        1.0000000      -0.43817141
  2159.0600       0.58528500       0.72140665       0.18245732       0.48201181      -0.26860000E-01   0.46975000E-01    1.0000000      -0.45623902
  2159.1600       0.58437600       0.72229701       0.18230484       0.48188301      -0.35435000E-01  -0.35950000E-01    1.0000000      -0.46226994
  2159.2600       0.57819800       0.72315044       0.18215235       0.48175421      -0.34050000E-01   0.77825000E-01    1.0000000      -0.48583719
  2159.3600       0.57756600       0.72396723       0.18199986       0.48162541      -0.19870000E-01   0.98950000E-01    1.0000000      -0.49069309
  2159.4600       0.57422400       0.72474766       0.18184737       0.48149661      -0.14260000E-01   0.85525000E-01    1.0000000      -0.50451026
  2159.5600       0.57471400       0.72549203       0.18169489       0.48136781      -0.27650000E-02   0.39975000E-01    1.0000000      -0.50536281
  2159.6600       0.57367100       0.72620061       0.18154240       0.48123900      -0.62650000E-02   0.80100000E-01    1.0000000      -0.51123361
  2159.7600       0.57346100       0.72687371       0.18138991       0.48111020       0.13255000E-01   0.11475000        1.0000000      -0.51419348
  2159.8600       0.57632200       0.72751160       0.18123743       0.48098140       0.16685000E-01   0.49550000E-01    1.0000000      -0.50674229
  2159.9600       0.57679800       0.72811458       0.18108494       0.48085260       0.23165000E-01  -0.10700000E-01    1.0000000      -0.50716788
  2160.0600       0.58095500       0.72868293       0.18093245       0.48072380       0.14545000E-01  -0.99600000E-01    1.0000000      -0.49513980
  2160.1600       0.57970700       0.72921694       0.18077997       0.48059500       0.32450000E-02   0.14175000E-01    1.0000000      -0.50111256
  2160.2600       0.58160400       0.72971690       0.18062748       0.48046620       0.17380000E-01   0.10807500        1.0000000      -0.49643009
  2160.3600       0.58318300       0.73018309       0.18047499       0.48033740       0.24860000E-01   0.81983333E-01    1.0000000      -0.49270030
  2160.4600       0.58657600       0.73061581       0.18032250       0.48020859       0.33776667E-01   0.14030000E-01    1.0000000      -0.48277832
  2160.9600       0.60344900       0.73228733       0.17956007       0.47956459       0.33278000E-01  -0.22326667E-02    1.0000000      -0.43182751
  2161.4600       0.61985400       0.73316513       0.17879763       0.47892058       0.31544000E-01  -0.87100000E-03    1.0000000      -0.37978499
  2161.9600       0.63499300       0.73328519       0.17803520       0.47827657       0.32407000E-01  -0.38840000E-02    1.0000000      -0.32944600
  2162.4600       0.65226100       0.73268350       0.17727276       0.47763257       0.27660000E-01  -0.16583000E-01    1.0000000      -0.26955215
  2162.9600       0.66265300       0.73139604       0.17651033       0.47698856       0.15824000E-01  -0.17526000E-01    1.0000000      -0.23040610
  2163.4600       0.66808500       0.72945880       0.17574789       0.47634455       0.10134000E-01   0.42470000E-02    1.0000000      -0.20570660
  2163.9600       0.67278700       0.72690775       0.17498546       0.47570055       0.20071000E-01   0.16998000E-01    1.0000000      -0.18139656
  2164.4600       0.68815600       0.72377889       0.17422302       0.47505654       0.27132000E-01   0.37530000E-02    1.0000000      -0.11939726
  2164.9600       0.69991900       0.72010820       0.17346059       0.47441254       0.23824000E-01   0.58430000E-02    1.0000000      -0.67668140E-01
  2165.4600       0.71198000       0.71593165       0.17269815       0.47376853       0.32975000E-01   0.45330000E-02    1.0000000      -0.13244758E-01
  2165.9600       0.73289400       0.71128525       0.17193572       0.47312452       0.28357000E-01  -0.13700000E-01    1.0000000       0.72426074E-01
  2166.4600       0.74033700       0.70620496       0.17117328       0.47248052       0.19275000E-01  -0.97400000E-02    1.0000000       0.11440038
  2166.9600       0.75216900       0.70072678       0.17041085       0.47183651       0.18617000E-01  -0.69320000E-02    1.0000000       0.17241893
  2167.4600       0.75895400       0.69488668       0.16964841       0.47119250       0.12343000E-01  -0.10632000E-01    1.0000000       0.21473447
  2167.9600       0.76451200       0.68872066       0.16888598       0.47054850       0.79850000E-02  -0.83470000E-02    1.0000000       0.25402988
  2168.4600       0.76693900       0.68226470       0.16812354       0.46990449       0.39960000E-02  -0.11113000E-01    1.0000000       0.28380292
  2168.9600       0.76850800       0.67555477       0.16736111       0.46926048      -0.31280000E-02  -0.12581000E-01    1.0000000       0.31155139
  2169.4600       0.76381100       0.66862687       0.16659867       0.46861648      -0.85850000E-02  -0.13421000E-01    1.0000000       0.31902870
  2169.9600       0.75992300       0.66151698       0.16583624       0.46797247      -0.16549000E-01  -0.13833000E-01    1.0000000       0.32982751
  2170.4600       0.74726200       0.65426109       0.16507380       0.46732846      -0.22418000E-01  -0.70580000E-02    1.0000000       0.31171122
  2170.9600       0.73750500       0.64689517       0.16431137       0.46668446      -0.23607000E-01  -0.42990000E-02    1.0000000       0.30369703
  2171.4600       0.72365500       0.63945521       0.16354893       0.46604045      -0.26717000E-01  -0.79340000E-02    1.0000000       0.28221249
  2171.9600       0.71078800       0.63197720       0.16278650       0.46539644      -0.31541000E-01  -0.53680000E-02    1.0000000       0.26415021
  2172.4600       0.69211400       0.62449712       0.16202406       0.46475244      -0.32085000E-01  -0.89000000E-04    1.0000000       0.22663154
  2172.9600       0.67870300       0.61705095       0.16126162       0.46410843      -0.31630000E-01   0.82400000E-03    1.0000000       0.20663921
  2173.4600       0.66048400       0.60967468       0.16049919       0.46346442      -0.31261000E-01  -0.17720000E-02    1.0000000       0.17029762
  2173.9600       0.64744200       0.60240430       0.15973675       0.46282042      -0.33402000E-01  -0.41420000E-02    1.0000000       0.15095290
  2174.4600       0.62708200       0.59527577       0.15897432       0.46217641      -0.35403000E-01  -0.12620000E-02    1.0000000       0.10660496
  2174.9600       0.61203900       0.58831674       0.15821188       0.46153240      -0.34664000E-01  -0.22260000E-02    1.0000000       0.79509915E-01
  2175.4600       0.59241800       0.58152996       0.15744945       0.46088840      -0.37629000E-01   0.20410000E-02    1.0000000       0.36493464E-01
  2175.9600       0.57441000       0.57491356       0.15668701       0.46024439      -0.32623000E-01   0.77930000E-02    1.0000000      -0.16877821E-02
  2176.4600       0.55979500       0.56846569       0.15592458       0.45960038      -0.29836000E-01   0.40490000E-02    1.0000000      -0.29061563E-01
  2176.9600       0.54457400       0.56218449       0.15516214       0.45895638      -0.28574000E-01   0.68960000E-02    1.0000000      -0.59025094E-01
  2177.4600       0.53122100       0.55606810       0.15439971       0.45831237      -0.22940000E-01   0.83560000E-02    1.0000000      -0.83280032E-01
  2177.9600       0.52163400       0.55011465       0.15363727       0.45766837      -0.20218000E-01   0.38080000E-02    1.0000000      -0.95458616E-01
  2178.4600       0.51100300       0.54432229       0.15287484       0.45702436      -0.19132000E-01   0.44710000E-02    1.0000000      -0.11167629
  2178.9600       0.50250200       0.53868916       0.15211240       0.45638035      -0.15747000E-01   0.37730000E-02    1.0000000      -0.12128852
  2179.4600       0.49525600       0.53321339       0.15134997       0.45573635      -0.15359000E-01   0.28430000E-02    1.0000000      -0.12722181
  2179.9600       0.48714300       0.52789313       0.15058753       0.45509234      -0.12904000E-01   0.49980000E-02    1.0000000      -0.13658224
  2180.4600       0.48235200       0.52272652       0.14982510       0.45444833      -0.10361000E-01   0.55150000E-02    1.0000000      -0.13532329
  2180.9600       0.47678200       0.51771169       0.14906266       0.45380433      -0.73890000E-02   0.32020000E-02    1.0000000      -0.13718406
  2181.4600       0.47496300       0.51284678       0.14830023       0.45316032      -0.71590000E-02  -0.11890000E-02    1.0000000      -0.12697510
  2181.9600       0.46962300       0.50812994       0.14753779       0.45251631      -0.85780000E-02   0.35040000E-02    1.0000000      -0.12906375
  2182.4600       0.46638500       0.50355931       0.14677536       0.45187231      -0.36550000E-02   0.34940000E-02    1.0000000      -0.12459716
  2182.9600       0.46596800       0.49913302       0.14601292       0.45122830      -0.50840000E-02  -0.67400000E-03    1.0000000      -0.11115923
  2183.4600       0.46130100       0.49484922       0.14525049       0.45058429      -0.43290000E-02   0.46950000E-02    1.0000000      -0.11244359
  2183.9600       0.46163900       0.49070604       0.14448805       0.44994029      -0.38900000E-03   0.22360000E-02    1.0000000      -0.97424012E-01
  2184.4600       0.46091200       0.48670162       0.14372562       0.44929628      -0.20930000E-02  -0.15940000E-02    1.0000000      -0.86439095E-01
  2184.9600       0.45954600       0.48283411       0.14296318       0.44865227      -0.19830000E-02  -0.10910000E-02    1.0000000      -0.78054776E-01
  2185.4600       0.45892900       0.47910164       0.14220075       0.44800827      -0.31840000E-02   0.27000000E-03    1.0000000      -0.67612659E-01
  2185.9600       0.45636200       0.47550236       0.14143831       0.44736426      -0.17130000E-02   0.35510000E-02    1.0000000      -0.64152749E-01
  2186.4600       0.45721600       0.47203440       0.14067587       0.44672025       0.36700000E-03  -0.21860000E-02    1.0000000      -0.49666828E-01
  2186.9600       0.45672900       0.46869590       0.13991344       0.44607625      -0.38990000E-02  -0.47060000E-02    1.0000000      -0.40109457E-01
  2187.4600       0.45331700       0.46548500       0.13915100       0.44543224      -0.43390000E-02  -0.22800000E-03    1.0000000      -0.40783498E-01
  2187.9600       0.45239000       0.46239985       0.13838857       0.44478823      -0.41270000E-02   0.93100000E-03    1.0000000      -0.33550013E-01
  2188.4600       0.44919000       0.45943858       0.13762613       0.44414423      -0.34080000E-02   0.15240000E-02    1.0000000      -0.34350161E-01
  2188.9600       0.44898200       0.45659933       0.13686370       0.44350022      -0.26030000E-02   0.43810000E-02    1.0000000      -0.25531001E-01
  2189.4600       0.44658700       0.45388024       0.13610126       0.44285621       0.97300000E-03   0.19500000E-03    1.0000000      -0.24444757E-01
  2189.9600       0.44995500       0.45127945       0.13533883       0.44221221      -0.24080000E-02  -0.77050000E-02    1.0000000      -0.44391735E-02
  2190.4600       0.44417900       0.44879511       0.13457639       0.44156820      -0.67320000E-02   0.22100000E-02    1.0000000      -0.15471818E-01
  2190.9600       0.44322300       0.44642535       0.13381396       0.44092419      -0.19800000E-03   0.25230000E-02    1.0000000      -0.10733306E-01
  2191.4600       0.44398100       0.44416830       0.13305152       0.44028019      -0.42090000E-02  -0.47410000E-02    1.0000000      -0.62778644E-03
  2191.9600       0.43901400       0.44202212       0.13228909       0.43963618      -0.49390000E-02   0.32570000E-02    1.0000000      -0.10082325E-01
  2192.4600       0.43904200       0.43998494       0.13152665       0.43899218      -0.95200000E-03   0.21500000E-02    1.0000000      -0.31604554E-02
  2192.9600       0.43806200       0.43805490       0.13076422       0.43834817      -0.27890000E-02  -0.22760000E-02    1.0000000       0.23797872E-04
  2193.4600       0.43625300       0.43623014       0.13000178       0.43770416      -0.32280000E-02   0.10810000E-02    1.0000000       0.76624239E-04
  2193.9600       0.43483400       0.43450880       0.12923935       0.43706016      -0.17080000E-02   0.17820000E-02    1.0000000       0.10899817E-02
  2194.4600       0.43454500       0.43288902       0.12847691       0.43641615      -0.14460000E-02   0.63800000E-03    1.0000000       0.55503638E-02
  2194.9600       0.43338800       0.43136893       0.12771448       0.43577214      -0.10700000E-02   0.23310000E-02    1.0000000       0.67673074E-02
  2195.4600       0.43347500       0.42994669       0.12695204       0.43512814       0.88500000E-03   0.19370000E-02    1.0000000       0.11825839E-01
  2195.9600       0.43427300       0.42862043       0.12618961       0.43448413       0.86700000E-03  -0.30200000E-02    1.0000000       0.18945738E-01
  2196.4600       0.43434200       0.42738828       0.12542717       0.43384012      -0.21350000E-02  -0.72200000E-03    1.0000000       0.23306789E-01
  2196.9600       0.43213800       0.42624839       0.12466474       0.43319612       0.14500000E-03   0.20090000E-02    1.0000000       0.19740202E-01
  2197.4600       0.43448700       0.42519890       0.12390230       0.43255211      -0.12600000E-03  -0.37920000E-02    1.0000000       0.31130921E-01
  2197.9600       0.43201200       0.42423795       0.12313987       0.43190810      -0.36470000E-02  -0.31210000E-02    1.0000000       0.26056283E-01
  2198.4600       0.43084000       0.42336368       0.12237743       0.43126410      -0.32470000E-02   0.35280000E-02    1.0000000       0.25058393E-01
  2198.9600       0.42876500       0.42257422       0.12161499       0.43062009      -0.11900000E-03   0.46180000E-02    1.0000000       0.20749635E-01
  2199.4600       0.43072100       0.42186772       0.12085256       0.42997608       0.13710000E-02  -0.31030000E-02    1.0000000       0.29673534E-01
  2199.9600       0.43013600       0.42124232       0.12009012       0.42933208      -0.32220000E-02  -0.36416667E-02    1.0000000       0.29808948E-01
  2200.4600       0.42749900       0.42069616       0.11932769       0.42868807      -0.22706667E-02   0.18016667E-02    1.0000000       0.22801095E-01
  2201.4600       0.42673000       0.41983410       0.11780282       0.42740006      -0.51950000E-03   0.72633333E-03    1.0000000       0.23113005E-01
  2202.4600       0.42646000       0.41926666       0.11627795       0.42611204      -0.81800000E-03  -0.81300000E-03    1.0000000       0.24109920E-01
  2203.4600       0.42509400       0.41897897       0.11475308       0.42482403      -0.21455000E-02  -0.88750000E-04    1.0000000       0.20495758E-01
  2204.4600       0.42216900       0.41895614       0.11322821       0.42353602      -0.99550000E-03   0.15320000E-02    1.0000000       0.10768559E-01
  2205.4600       0.42310300       0.41918328       0.11170334       0.42224800       0.91850000E-03   0.44325000E-03    1.0000000       0.13137718E-01
  2206.4600       0.42400600       0.41964553       0.11017847       0.42095999      -0.10900000E-03  -0.44100000E-03    1.0000000       0.14614999E-01
  2207.4600       0.42288500       0.42032799       0.10865360       0.41967198       0.36500000E-04  -0.93750000E-04    1.0000000       0.85703414E-02
  2208.4600       0.42407900       0.42121578       0.10712873       0.41838397      -0.29650000E-03   0.24900000E-03    1.0000000       0.95966536E-02
  2209.4600       0.42229200       0.42229403       0.10560386       0.41709595       0.53450000E-03   0.42450000E-03    1.0000000      -0.67915177E-05
  2210.4600       0.42514800       0.42354784       0.10407899       0.41580794       0.55250000E-03   0.82675000E-03    1.0000000       0.53632513E-02
  2211.4600       0.42339700       0.42496235       0.10255412       0.41451993       0.21880000E-02   0.10310000E-02    1.0000000      -0.52465697E-02
  2212.4600       0.42952400       0.42652266       0.10102924       0.41323191       0.26145000E-02  -0.53025000E-03    1.0000000       0.10059608E-01
  2213.4600       0.42862600       0.42821389       0.99504375E-01   0.41194390       0.11275000E-02  -0.43700000E-03    1.0000000       0.13812678E-02
  2214.4600       0.43177900       0.43002117       0.97979504E-01   0.41065589       0.17405000E-02   0.72300000E-03    1.0000000       0.58917266E-02
  2215.4600       0.43210700       0.43192961       0.96454634E-01   0.40936787       0.25735000E-02   0.54825000E-03    1.0000000       0.59456975E-03
  2216.4600       0.43692600       0.43392432       0.94929763E-01   0.40807986       0.28370000E-02  -0.19175000E-03    1.0000000       0.10060719E-01
  2217.4600       0.43778100       0.43599044       0.93404893E-01   0.40679185       0.21900000E-02  -0.45575000E-03    1.0000000       0.60014236E-02
  2218.4600       0.44130600       0.43811307       0.91880023E-01   0.40550383       0.19255000E-02  -0.33350000E-03    1.0000000       0.10701746E-01
  2219.4600       0.44163200       0.44027733       0.90355152E-01   0.40421582       0.15230000E-02   0.19800000E-03    1.0000000       0.45404347E-02
  2220.4600       0.44435200       0.44246835       0.88830282E-01   0.40292781       0.23215000E-02  -0.22500000E-05    1.0000000       0.63134302E-02
  2221.4600       0.44627500       0.44467124       0.87305412E-01   0.40163980       0.15185000E-02  -0.26625000E-03    1.0000000       0.53753353E-02
  2222.4600       0.44738900       0.44687111       0.85780541E-01   0.40035178       0.17890000E-02   0.57875000E-03    1.0000000       0.17358090E-02
  2223.4600       0.44985300       0.44905309       0.84255671E-01   0.39906377       0.26760000E-02  -0.44475000E-03    1.0000000       0.26810523E-02
  2224.4600       0.45274100       0.45120230       0.82730800E-01   0.39777576       0.89950000E-03  -0.26775000E-03    1.0000000       0.51572700E-02
  2225.4600       0.45165200       0.45330385       0.81205930E-01   0.39648774       0.21405000E-02   0.80825000E-03    1.0000000      -0.55364932E-02
  2226.4600       0.45702200       0.45534286       0.79681060E-01   0.39519973       0.25160000E-02  -0.10655000E-02    1.0000000       0.56279900E-02
  2227.4600       0.45668400       0.45730444       0.78156189E-01   0.39391172       0.95000000E-05  -0.11500000E-02    1.0000000      -0.20795427E-02
  2228.4600       0.45704100       0.45917373       0.76631319E-01   0.39262370       0.21600000E-03   0.46550000E-03    1.0000000      -0.71482727E-02
  2229.4600       0.45711600       0.46093583       0.75106449E-01   0.39133569       0.94050000E-03   0.14275000E-03    1.0000000      -0.12802932E-01
  2230.4600       0.45892200       0.46257587       0.73581578E-01   0.39004768       0.50150000E-03  -0.46975000E-03    1.0000000      -0.12246668E-01
  2231.4600       0.45811900       0.46407895       0.72056708E-01   0.38875966       0.10000000E-05   0.32600000E-03    1.0000000      -0.19975982E-01
  2232.4600       0.45892400       0.46543021       0.70531838E-01   0.38747165       0.11535000E-02   0.11292500E-02    1.0000000      -0.21806873E-01
  2233.4600       0.46042600       0.46661476       0.69006967E-01   0.38618364       0.22595000E-02   0.64775000E-03    1.0000000      -0.20742862E-01
  2234.4600       0.46344300       0.46761771       0.67482097E-01   0.38489563       0.24490000E-02  -0.71250000E-03    1.0000000      -0.13992376E-01
  2235.4600       0.46532400       0.46842419       0.65957226E-01   0.38360761       0.83450000E-03  -0.85025000E-03    1.0000000      -0.10390896E-01
  2236.4600       0.46511200       0.46901931       0.64432356E-01   0.38231960       0.74850000E-03   0.37200000E-03    1.0000000      -0.13096120E-01
  2237.4600       0.46682100       0.46938819       0.62907486E-01   0.38103159       0.15785000E-02   0.34975000E-03    1.0000000      -0.86044410E-02
  2238.4600       0.46826900       0.46951595       0.61382615E-01   0.37974357       0.14480000E-02  -0.13050000E-03    1.0000000      -0.41793916E-02
