# XDI/1.0 Athena/0.9.26
# Element.edge:                  K
# Element.symbol:                P
# Column.1:                      energy eV
# Column.2:                      xmu
# Column.3:                      bkg
# Column.4:                      pre_edge
# Column.5:                      post_edge
# Column.6:                      der
# Column.7:                      sec
# Column.8:                      i0
# Column.9:                      chi(e)
# Athena.e0:                     2154
# Athena.eshift:                 0.46
# Athena.rbkg:                   1.0
# Athena.importance:             1
# Athena.standard:               None
# Athena.bkg_kweight:            2
# Athena.edge_step:              0.4862734
# Athena.fixed_step:             no
# Athena.pre_edge_range:         -25 -10
# Athena.pre_edge_line:          3.365042 - 0.0014789 * E
# Athena.normalization_range:    26 58
# Athena.post_edge_polynomial:   2.864739 - 0.00102088 * E + 0 * E^2 + 0 * E^3
# Athena.spline_range_energy:    0.000 85.601
# Athena.clamps:                 0 24
# Athena.spline_range_k:         0.000 4.740
# Athena.kweight:                2
# Athena.window:                 hanning
# Athena.phase_correction:       no
# Athena.k_range:                2.740 3.000
# Athena.dk:                     1
# Athena.r_range:                1 3
# Athena.dr:                     0.0
# Athena.window:                 hanning
# Athena.plot_multiplier:        1
# Athena.y_offset:               0
# ///
#------------------------
#   e         xmu        bkg        pre_edge        post_edge        der        sec        i0        chie
  2125.4600       0.23220800       0.23220800       0.22170680       0.69490827      -0.56510000E-02   0.10746250E-02    1.0000000        0.0000000
  2127.4600       0.22090600       0.22090600       0.21874900       0.69286652      -0.35017500E-02   0.10016875E-02    1.0000000        0.0000000
  2129.4600       0.21820100       0.21820100       0.21579121       0.69082477      -0.16442500E-02   0.42318750E-03    1.0000000        0.0000000
  2131.4600       0.21432900       0.21432900       0.21283342       0.68878302      -0.18090000E-02  -0.73437500E-04    1.0000000        0.0000000
  2133.4600       0.21096500       0.21096500       0.20987562       0.68674126      -0.19380000E-02  -0.19787500E-03    1.0000000        0.0000000
  2135.4600       0.20657700       0.20657700       0.20691783       0.68469951      -0.26005000E-02   0.11006250E-03    1.0000000        0.0000000
  2137.4600       0.20056300       0.20056300       0.20396004       0.68265776      -0.14977500E-02   0.39087500E-03    1.0000000        0.0000000
  2139.4600       0.20058600       0.20058600       0.20100225       0.68061601      -0.10370000E-02  -0.64825000E-03    1.0000000        0.0000000
  2140.4600       0.19745200       0.19745200       0.19952335       0.67959513      -0.34425000E-02   0.42113889E-02    1.0000000        0.0000000
  2140.6600       0.19645500       0.19645500       0.19922757       0.67939096       0.40166667E-02   0.17375000E-01    1.0000000        0.0000000
  2140.7600       0.19865700       0.19865700       0.19907968       0.67928887       0.17700000E-02  -0.45883333E-01    1.0000000        0.0000000
  2140.8600       0.19680900       0.19680900       0.19893179       0.67918678      -0.51600000E-02  -0.60000000E-03    1.0000000        0.0000000
  2140.9600       0.19762500       0.19762500       0.19878390       0.67908469       0.16500000E-02   0.36125000E-01    1.0000000        0.0000000
  2141.0600       0.19713900       0.19713900       0.19863601       0.67898261       0.20650000E-02   0.15925000E-01    1.0000000        0.0000000
  2141.1600       0.19803800       0.19803800       0.19848812       0.67888052       0.48350000E-02  -0.45750000E-02    1.0000000        0.0000000
  2141.2600       0.19810600       0.19810600       0.19834023       0.67877843       0.11500000E-02  -0.35975000E-01    1.0000000        0.0000000
  2141.3600       0.19826800       0.19826800       0.19819234       0.67867634      -0.23600000E-02  -0.49200000E-01    1.0000000        0.0000000
  2141.4600       0.19763400       0.19763400       0.19804445       0.67857426      -0.86900000E-02   0.57250000E-02    1.0000000        0.0000000
  2141.5600       0.19653000       0.19653000       0.19789656       0.67847217      -0.12150000E-02   0.64825000E-01    1.0000000        0.0000000
  2141.6600       0.19739100       0.19739100       0.19774867       0.67837008       0.42750000E-02   0.27875000E-01    1.0000000        0.0000000
  2141.7600       0.19738500       0.19738500       0.19760078       0.67826799       0.43600000E-02  -0.22375000E-01    1.0000000        0.0000000
  2141.8600       0.19826300       0.19826300       0.19745289       0.67816591      -0.20000000E-03  -0.11582500        1.0000000        0.0000000
  2141.9600       0.19734500       0.19734500       0.19730500       0.67806382      -0.18805000E-01  -0.30000000E-02    1.0000000        0.0000000
  2142.0600       0.19450200       0.19450200       0.19715711       0.67796173      -0.80000000E-03   0.13912500        1.0000000        0.0000000
  2142.1600       0.19718500       0.19718500       0.19700923       0.67785964       0.90200000E-02  -0.28875000E-01    1.0000000        0.0000000
  2142.2600       0.19630600       0.19630600       0.19686134       0.67775756      -0.65750000E-02  -0.60675000E-01    1.0000000        0.0000000
  2142.3600       0.19587000       0.19587000       0.19671345       0.67765547      -0.31150000E-02  -0.48250000E-02    1.0000000        0.0000000
  2142.4600       0.19568300       0.19568300       0.19656556       0.67755338      -0.75400000E-02   0.63850000E-01    1.0000000        0.0000000
  2142.5600       0.19436200       0.19436200       0.19641767       0.67745129       0.96550000E-02   0.12165000        1.0000000        0.0000000
  2142.6600       0.19761400       0.19761400       0.19626978       0.67734921       0.16790000E-01  -0.55075000E-01    1.0000000        0.0000000
  2142.7600       0.19772000       0.19772000       0.19612189       0.67724712      -0.13600000E-02  -0.13482500        1.0000000        0.0000000
  2142.8600       0.19734200       0.19734200       0.19597400       0.67714503      -0.10175000E-01  -0.46000000E-01    1.0000000        0.0000000
  2142.9600       0.19568500       0.19568500       0.19582611       0.67704294      -0.10560000E-01   0.10385000        1.0000000        0.0000000
  2143.0600       0.19523000       0.19523000       0.19567822       0.67694086       0.10595000E-01   0.12960000        1.0000000        0.0000000
  2143.1600       0.19780400       0.19780400       0.19553033       0.67683877       0.15360000E-01  -0.11375000        1.0000000        0.0000000
  2143.2600       0.19830200       0.19830200       0.19538244       0.67673668      -0.12155000E-01  -0.10375000        1.0000000        0.0000000
  2143.3600       0.19537300       0.19537300       0.19523455       0.67663459      -0.53900000E-02   0.84200000E-01    1.0000000        0.0000000
  2143.4600       0.19722400       0.19722400       0.19508666       0.67653250       0.46850000E-02  -0.22950000E-01    1.0000000        0.0000000
  2143.5600       0.19631000       0.19631000       0.19493877       0.67643042      -0.99800000E-02  -0.39175000E-01    1.0000000        0.0000000
  2143.6600       0.19522800       0.19522800       0.19479088       0.67632833      -0.31500000E-02   0.66850000E-01    1.0000000        0.0000000
  2143.7600       0.19568000       0.19568000       0.19464299       0.67622624       0.33900000E-02   0.49525000E-01    1.0000000        0.0000000
  2143.8600       0.19590600       0.19590600       0.19449510       0.67612415       0.67550000E-02  -0.78675000E-01    1.0000000        0.0000000
  2143.9600       0.19703100       0.19703100       0.19434721       0.67602207      -0.12345000E-01  -0.46100000E-01    1.0000000        0.0000000
  2144.0600       0.19343700       0.19343700       0.19419932       0.67591998      -0.24650000E-02   0.16692500        1.0000000        0.0000000
  2144.1600       0.19653800       0.19653800       0.19405143       0.67581789       0.21040000E-01  -0.24000000E-02    1.0000000        0.0000000
  2144.2600       0.19764500       0.19764500       0.19390354       0.67571580      -0.29450000E-02  -0.20630000        1.0000000        0.0000000
  2144.3600       0.19594900       0.19594900       0.19375565       0.67561372      -0.20220000E-01   0.42525000E-01    1.0000000        0.0000000
  2144.4600       0.19360100       0.19360100       0.19360776       0.67551163       0.55600000E-02   0.22242500        1.0000000        0.0000000
  2144.5600       0.19706100       0.19706100       0.19345987       0.67540954       0.24265000E-01  -0.75725000E-01    1.0000000        0.0000000
  2144.6600       0.19845400       0.19845400       0.19331198       0.67530745      -0.95850000E-02  -0.11987500        1.0000000        0.0000000
  2144.7600       0.19514400       0.19514400       0.19316409       0.67520537       0.29000000E-03   0.10365000        1.0000000        0.0000000
  2144.8600       0.19851200       0.19851200       0.19301620       0.67510328       0.11145000E-01  -0.59475000E-01    1.0000000        0.0000000
  2144.9600       0.19737300       0.19737300       0.19286831       0.67500119      -0.11605000E-01  -0.21300000E-01    1.0000000        0.0000000
  2145.0600       0.19619100       0.19619100       0.19272043       0.67489910       0.68850000E-02   0.13285000        1.0000000        0.0000000
  2145.1600       0.19875000       0.19875000       0.19257254       0.67479702       0.14965000E-01  -0.50675000E-01    1.0000000        0.0000000
  2145.2600       0.19918400       0.19918400       0.19242465       0.67469493      -0.32500000E-02  -0.45350000E-01    1.0000000        0.0000000
  2145.3600       0.19810000       0.19810000       0.19227676       0.67459284       0.58950000E-02   0.86125000E-01    1.0000000        0.0000000
  2145.4600       0.20036300       0.20036300       0.19212887       0.67449075       0.13975000E-01  -0.32975000E-01    1.0000000        0.0000000
  2145.5600       0.20089500       0.20089500       0.19198098       0.67438867      -0.70000000E-03  -0.97000000E-01    1.0000000        0.0000000
  2145.6600       0.20022300       0.20022300       0.19183309       0.67428658      -0.54250000E-02  -0.17550000E-01    1.0000000        0.0000000
  2145.7600       0.19981000       0.19981000       0.19168520       0.67418449      -0.42100000E-02   0.15900000E-01    1.0000000        0.0000000
  2145.8600       0.19938100       0.19938100       0.19153731       0.67408240      -0.22450000E-02   0.54600000E-01    1.0000000        0.0000000
  2145.9600       0.19936100       0.19936100       0.19138942       0.67398032       0.67100000E-02   0.69150000E-01    1.0000000        0.0000000
  2146.0600       0.20072300       0.20072300       0.19124153       0.67387823       0.11585000E-01  -0.19275000E-01    1.0000000        0.0000000
  2146.1600       0.20167800       0.20167800       0.19109364       0.67377614       0.28550000E-02  -0.67250000E-02    1.0000000        0.0000000
  2146.2600       0.20129400       0.20129400       0.19094575       0.67367405       0.10240000E-01   0.33775000E-01    1.0000000        0.0000000
  2146.3600       0.20372600       0.20372600       0.19079786       0.67357196       0.96100000E-02  -0.57600000E-01    1.0000000        0.0000000
  2146.4600       0.20321600       0.20321600       0.19064997       0.67346988      -0.12800000E-02  -0.21850000E-01    1.0000000        0.0000000
  2146.5600       0.20347000       0.20347000       0.19050208       0.67336779       0.52400000E-02   0.24325000E-01    1.0000000        0.0000000
  2146.6600       0.20426400       0.20426400       0.19035419       0.67326570       0.35850000E-02   0.12075000E-01    1.0000000        0.0000000
  2146.7600       0.20418700       0.20418700       0.19020630       0.67316361       0.76550000E-02   0.15375000E-01    1.0000000        0.0000000
  2146.8600       0.20579500       0.20579500       0.19005841       0.67306153       0.66600000E-02  -0.73275000E-01    1.0000000        0.0000000
  2146.9600       0.20551900       0.20551900       0.18991052       0.67295944      -0.70000000E-02  -0.15450000E-01    1.0000000        0.0000000
  2147.0600       0.20439500       0.20439500       0.18976263       0.67285735       0.35700000E-02   0.12752500        1.0000000        0.0000000
  2147.1600       0.20623300       0.20623300       0.18961474       0.67275526       0.18505000E-01   0.82050000E-01    1.0000000        0.0000000
  2147.2600       0.20809600       0.20809600       0.18946685       0.67265318       0.19980000E-01  -0.35100000E-01    1.0000000        0.0000000
  2147.3600       0.21022900       0.21022900       0.18931896       0.67255109       0.11485000E-01  -0.87100000E-01    1.0000000        0.0000000
  2147.4600       0.21039300       0.21039300       0.18917107       0.67244900       0.25600000E-02  -0.14625000E-01    1.0000000        0.0000000
  2147.5600       0.21074100       0.21074100       0.18902318       0.67234691       0.85600000E-02   0.70075000E-01    1.0000000        0.0000000
  2147.6600       0.21210500       0.21210500       0.18887529       0.67224483       0.16575000E-01   0.47400000E-01    1.0000000        0.0000000
  2147.7600       0.21405600       0.21405600       0.18872740       0.67214274       0.18040000E-01  -0.27075000E-01    1.0000000        0.0000000
  2147.8600       0.21571300       0.21571300       0.18857951       0.67204065       0.11160000E-01  -0.17075000E-01    1.0000000        0.0000000
  2147.9600       0.21628800       0.21628800       0.18843163       0.67193856       0.14625000E-01   0.34350000E-01    1.0000000        0.0000000
  2148.0600       0.21863800       0.21863800       0.18828374       0.67183648       0.18030000E-01   0.31000000E-02    1.0000000        0.0000000
  2148.1600       0.21989400       0.21989400       0.18813585       0.67173439       0.15245000E-01   0.53350000E-01    1.0000000        0.0000000
  2148.2600       0.22168700       0.22168700       0.18798796       0.67163230       0.28700000E-01   0.65525000E-01    1.0000000        0.0000000
  2148.3600       0.22563400       0.22563400       0.18784007       0.67153021       0.28350000E-01  -0.37150000E-01    1.0000000        0.0000000
  2148.4600       0.22735700       0.22735700       0.18769218       0.67142813       0.21270000E-01   0.26750000E-01    1.0000000        0.0000000
  2148.5600       0.22988800       0.22988800       0.18754429       0.67132604       0.33700000E-01   0.28775000E-01    1.0000000        0.0000000
  2148.6600       0.23409700       0.23409700       0.18739640       0.67122395       0.27025000E-01  -0.16737500        1.0000000        0.0000000
  2148.7600       0.23529300       0.23529300       0.18724851       0.67112186       0.22500000E-03   0.10775000E-01    1.0000000        0.0000000
  2148.8600       0.23414200       0.23414200       0.18710062       0.67101978       0.29180000E-01   0.23587500        1.0000000        0.0000000
  2148.9600       0.24112900       0.24112900       0.18695273       0.67091769       0.47400000E-01   0.57350000E-01    1.0000000        0.0000000
  2149.0600       0.24362200       0.24362200       0.18680484       0.67081560       0.40650000E-01   0.45450000E-01    1.0000000        0.0000000
  2149.1600       0.24925900       0.24925900       0.18665695       0.67071351       0.56490000E-01   0.25400000E-01    1.0000000        0.0000000
  2149.2600       0.25492000       0.25492000       0.18650906       0.67061142       0.45730000E-01  -0.69150000E-01    1.0000000        0.0000000
  2149.3600       0.25840500       0.25840500       0.18636117       0.67050934       0.42660000E-01   0.10337500        1.0000000        0.0000000
  2149.4600       0.26345200       0.26345200       0.18621328       0.67040725       0.66405000E-01   0.18670000        1.0000000        0.0000000
  2149.5600       0.27168600       0.27168600       0.18606539       0.67030516       0.80000000E-01   0.10957500        1.0000000        0.0000000
  2149.6600       0.27945200       0.27945200       0.18591750       0.67020307       0.88320000E-01   0.15562500        1.0000000        0.0000000
  2149.7600       0.28935000       0.28935000       0.18576961       0.67010099       0.11112500       0.12575000        1.0000000        0.0000000
  2149.8600       0.30167700       0.30167700       0.18562172       0.66999890       0.11347000       0.11617500        1.0000000        0.0000000
  2149.9600       0.31204400       0.31204400       0.18547383       0.66989681       0.13436000       0.27197500        1.0000000        0.0000000
  2150.0600       0.32854900       0.32854900       0.18532594       0.66979472       0.16786500       0.41487500        1.0000000        0.0000000
  2150.1600       0.34561700       0.34561700       0.18517805       0.66969264       0.21733500       0.60917500        1.0000000        0.0000000
  2150.2600       0.37201600       0.37201600       0.18503016       0.66959055       0.28970000       0.69095000        1.0000000        0.0000000
  2150.3600       0.40355700       0.40355700       0.18488227       0.66948846       0.35552500       0.71902500        1.0000000        0.0000000
  2150.4600       0.44312100       0.44312100       0.18473438       0.66938637       0.43350500       0.68090000        1.0000000        0.0000000
  2150.5600       0.49025800       0.49025800       0.18458649       0.66928429       0.49170500       0.67200000        1.0000000        0.0000000
  2150.6600       0.54146200       0.54146200       0.18443860       0.66918220       0.56790500       0.96772500        1.0000000        0.0000000
  2150.7600       0.60383900       0.60383900       0.18429071       0.66908011       0.68525000        1.0860000        1.0000000        0.0000000
  2150.8600       0.67851200       0.67851200       0.18414283       0.66897802       0.78510500       0.97367500        1.0000000        0.0000000
  2150.9600       0.76086000       0.76086000       0.18399494       0.66887594       0.87998500        1.2364500        1.0000000        0.0000000
  2151.0600       0.85450900       0.85450900       0.18384705       0.66877385        1.0323950        1.4736000        1.0000000        0.0000000
  2151.1600       0.96733900       0.96733900       0.18369916       0.66867176        1.1747050        1.7035500        1.0000000        0.0000000
  2151.2600        1.0894500        1.0894500       0.18355127       0.66856967        1.3731050        3.1277250        1.0000000        0.0000000
  2151.3600        1.2419600        1.2419600       0.18340338       0.66846759        1.8002500        4.4239750        1.0000000        0.0000000
  2151.4600        1.4495000        1.4495000       0.18325549       0.66836550        2.2579000        4.3002500        1.0000000        0.0000000
  2151.5600        1.6935400        1.6935400       0.18310760       0.66826341        2.6603000        4.0135000        1.0000000        0.0000000
  2151.6600        1.9815600        1.9815600       0.18295971       0.66816132        3.0606000        2.6767500        1.0000000        0.0000000
  2151.7600        2.3056600        2.3056600       0.18281182       0.66805923        3.1956500      -0.44150000        1.0000000        0.0000000
  2151.8600        2.6206900        2.6206900       0.18266393       0.66795715        2.9723000       -3.1970000        1.0000000        0.0000000
  2151.9600        2.9001200        2.9001200       0.18251604       0.66785506        2.5562500       -5.0097500        1.0000000        0.0000000
  2152.0600        3.1319400        3.1319400       0.18236815       0.66775297        1.9703500       -6.0487500        1.0000000        0.0000000
  2152.1600        3.2941900        3.2941900       0.18222026       0.66765088        1.3465000       -6.3985000        1.0000000        0.0000000
  2152.2600        3.4012400        3.4012400       0.18207237       0.66754880       0.69065000       -6.1120000        1.0000000        0.0000000
  2152.3600        3.4323200        3.4323200       0.18192448       0.66744671       0.12410000       -4.5015000        1.0000000        0.0000000
  2152.4600        3.4260600        3.4260600       0.18177659       0.66734462      -0.20965000       -3.3625000        1.0000000        0.0000000
  2152.5600        3.3903900        3.3903900       0.18162870       0.66724253      -0.54840000       -3.0667500        1.0000000        0.0000000
  2152.6600        3.3163800        3.3163800       0.18148081       0.66714045      -0.82300000       -2.5372500        1.0000000        0.0000000
  2152.7600        3.2257900        3.2257900       0.18133292       0.66703836       -1.0558500       -2.2485000        1.0000000        0.0000000
  2152.8600        3.1052100        3.1052100       0.18118503       0.66693627       -1.2727000       -1.9877500        1.0000000        0.0000000
  2152.9600        2.9712500        2.9712500       0.18103714       0.66683418       -1.4534000       -1.0117500        1.0000000        0.0000000
  2153.0600        2.8145300        2.8145300       0.18088925       0.66673210       -1.4750500       0.22500000        1.0000000        0.0000000
  2153.1600        2.6762400        2.6762400       0.18074136       0.66663001       -1.4084000       0.25925000        1.0000000        0.0000000
  2153.2600        2.5328500        2.5328500       0.18059347       0.66652792       -1.4232000       0.61425000        1.0000000        0.0000000
  2153.3600        2.3916000        2.3916000       0.18044558       0.66642583       -1.2855500        1.3162500        1.0000000        0.0000000
  2153.4600        2.2757400        2.2757400       0.18029769       0.66632375       -1.1599500       0.74875000        1.0000000        0.0000000
  2153.5600        2.1596100        2.1596100       0.18014980       0.66622166       -1.1358000       0.85250000        1.0000000        0.0000000
  2153.6600        2.0485800        2.0485800       0.18000191       0.66611957      -0.98945000        1.6142500        1.0000000        0.0000000
  2153.7600        1.9617200        1.9617200       0.17985403       0.66601748      -0.81295000        1.4332500        1.0000000        0.0000000
  2153.8600        1.8859900        1.8859900       0.17970614       0.66591540      -0.70280000        1.0767500        1.0000000        0.0000000
  2153.9600        1.8211600        1.8211600       0.17955825       0.66581331      -0.59760000        1.0287500        1.0000000        0.0000000
  2154.0600        1.7664700       0.86954226       0.17941036       0.66571122      -0.49705000       0.82000000        1.0000000        1.8444927
  2154.1600        1.7217500       0.87348573       0.17926247       0.66560913      -0.43360000       0.60100000        1.0000000        1.7444184
  2154.2600        1.6797500       0.87736197       0.17911458       0.66550705      -0.37685000       0.60200000        1.0000000        1.6500759
  2154.3600        1.6463800       0.88117134       0.17896669       0.66540496      -0.31320000       0.71825000        1.0000000        1.5736182
  2154.4600        1.6171100       0.88491423       0.17881880       0.66530287      -0.23320000       0.51100000        1.0000000        1.5057286
  2154.5600        1.5997400       0.88859103       0.17867091       0.66520078      -0.21100000       0.32475000        1.0000000        1.4624468
  2154.6600        1.5749100       0.89220212       0.17852302       0.66509869      -0.16825000       0.37500000E-01    1.0000000        1.4039589
  2154.7600        1.5660900       0.89574788       0.17837513       0.66499661      -0.20350000      -0.41825000        1.0000000        1.3785293
  2154.8600        1.5342100       0.89922868       0.17822724       0.66489452      -0.25190000       0.52500000E-02    1.0000000        1.3058113
  2154.9600        1.5157100       0.90264492       0.17807935       0.66479243      -0.20245000       0.20625000        1.0000000        1.2607416
  2155.0600        1.4937200       0.90599697       0.17793146       0.66469034      -0.21065000      -0.28450000        1.0000000        1.2086267
  2155.1600        1.4735800       0.90928521       0.17778357       0.66458826      -0.25935000      -0.47850000        1.0000000        1.1604476
  2155.2600        1.4418500       0.91251004       0.17763568       0.66448617      -0.30635000       0.14750000E-01    1.0000000        1.0885645
  2155.3600        1.4123100       0.91567182       0.17748779       0.66438408      -0.25640000       0.37500000E-02    1.0000000        1.0213147
  2155.4600        1.3905700       0.91877094       0.17733990       0.66428199      -0.30560000      -0.22650000        1.0000000       0.97023415
  2155.5600        1.3511900       0.92180779       0.17719201       0.66417991      -0.30170000       0.16025000        1.0000000       0.88300576
  2155.6600        1.3302300       0.92478274       0.17704412       0.66407782      -0.27355000      -0.23075000        1.0000000       0.83378458
  2155.7600        1.2964800       0.92769617       0.17689623       0.66397573      -0.34785000      -0.16300000        1.0000000       0.75838783
  2155.8600        1.2606600       0.93054848       0.17674834       0.66387364      -0.30615000       0.23150000        1.0000000       0.67885993
  2155.9600        1.2352500       0.93334003       0.17660045       0.66377156      -0.30155000      -0.11100000        1.0000000       0.62086466
  2156.0600        1.2003500       0.93607121       0.17645256       0.66366947      -0.32835000      -0.93750000E-01    1.0000000       0.54347778
  2156.1600        1.1695800       0.93874241       0.17630467       0.66356738      -0.32030000       0.22125000        1.0000000       0.47470742
  2156.2600        1.1362900       0.94135400       0.17615678       0.66346529      -0.28410000       0.37725000        1.0000000       0.40087736
  2156.3600        1.1127600       0.94390637       0.17600889       0.66336321      -0.24485000      -0.13175000        1.0000000       0.34724011
  2156.4600        1.0873200       0.94639990       0.17586100       0.66326112      -0.31045000      -0.20725000        1.0000000       0.28979604
  2156.5600        1.0506700       0.94883496       0.17571311       0.66315903      -0.28630000       0.68775000        1.0000000       0.20941931
  2156.6600        1.0300600       0.95121195       0.17556523       0.66305694      -0.17290000       0.34695000        1.0000000       0.16214757
  2156.7600        1.0160900       0.95353124       0.17541734       0.66295486      -0.21691000      -0.35717500        1.0000000       0.12864935
  2156.8600       0.98667800       0.95579322       0.17526945       0.66285277      -0.24433500       0.72425000E-01    1.0000000       0.63513200E-01
  2156.9600       0.96722300       0.95799827       0.17512156       0.66275068      -0.20242500       0.34647500        1.0000000       0.18970264E-01
  2157.0600       0.94619300       0.96014676       0.17497367       0.66264859      -0.17504000       0.31495000        1.0000000      -0.28695295E-01
  2157.1600       0.93221500       0.96223908       0.17482578       0.66254651      -0.13943500       0.32627500        1.0000000      -0.61743214E-01
  2157.2600       0.91830600       0.96427562       0.17467789       0.66244442      -0.10978500       0.63575000E-01    1.0000000      -0.94534513E-01
  2157.3600       0.91025800       0.96625675       0.17453000       0.66234233      -0.12672000      -0.27492500        1.0000000      -0.11515898
  2157.4600       0.89296200       0.96818286       0.17438211       0.66224024      -0.16477000      -0.74050000E-01    1.0000000      -0.15468841
  2157.5600       0.87730400       0.97005432       0.17423422       0.66213815      -0.14153000       0.25315000        1.0000000      -0.19073698
  2157.6600       0.86465600       0.97187152       0.17408633       0.66203607      -0.11414000       0.18467500        1.0000000      -0.22048404
  2157.7600       0.85447600       0.97363485       0.17393844       0.66193398      -0.10459500      -0.11330000        1.0000000      -0.24504497
  2157.8600       0.84373700       0.97534468       0.17379055       0.66183189      -0.13680000      -0.15350000E-01    1.0000000      -0.27064544
  2157.9600       0.82711600       0.97700139       0.17364266       0.66172980      -0.10766500       0.27240000        1.0000000      -0.30823276
  2158.0600       0.82220400       0.97860537       0.17349477       0.66162772      -0.82320000E-01   0.94300000E-01    1.0000000      -0.32163259
  2158.1600       0.81065200       0.98015700       0.17334688       0.66152563      -0.88805000E-01  -0.45975000E-01    1.0000000      -0.34857962
  2158.2600       0.80444300       0.98165666       0.17319899       0.66142354      -0.91515000E-01  -0.18667500        1.0000000      -0.36443214
  2158.3600       0.79234900       0.98310473       0.17305110       0.66132145      -0.12614000       0.65750000E-02    1.0000000      -0.39228082
  2158.4600       0.77921500       0.98450159       0.17290321       0.66121937      -0.90200000E-01   0.48342500        1.0000000      -0.42216290
  2158.5600       0.77430900       0.98584763       0.17275532       0.66111728      -0.29455000E-01   0.78000000E-01    1.0000000      -0.43501995
  2158.6600       0.77332400       0.98714322       0.17260743       0.66101519      -0.74600000E-01  -0.42715000        1.0000000      -0.43970989
  2158.7600       0.75938900       0.98838876       0.17245954       0.66091310      -0.11488500       0.90375000E-01    1.0000000      -0.47092800
  2158.8600       0.75034700       0.98958461       0.17231165       0.66081102      -0.56525000E-01   0.40987500        1.0000000      -0.49198170
  2158.9600       0.74808400       0.99073117       0.17216376       0.66070893      -0.32910000E-01   0.15392500        1.0000000      -0.49899331
  2159.0600       0.74376500       0.99182881       0.17201587       0.66060684      -0.25740000E-01   0.82250000E-02    1.0000000      -0.51013239
  2159.1600       0.74293600       0.99287792       0.17186798       0.66050475      -0.31265000E-01   0.37025000E-01    1.0000000      -0.51399464
  2159.2600       0.73751200       0.99387888       0.17172009       0.66040267      -0.18335000E-01   0.11645000        1.0000000      -0.52720728
  2159.3600       0.73926900       0.99483206       0.17157220       0.66030058      -0.79750000E-02   0.30800000E-01    1.0000000      -0.52555427
  2159.4600       0.73591700       0.99573786       0.17142432       0.66019849      -0.12175000E-01   0.16837500        1.0000000      -0.53431024
  2159.5600       0.73683400       0.99659665       0.17127643       0.66009640       0.25700000E-01   0.13185000        1.0000000      -0.53419053
  2159.6600       0.74105700       0.99740881       0.17112854       0.65999432       0.14195000E-01  -0.87100000E-01    1.0000000      -0.52717630
  2159.7600       0.73967300       0.99817473       0.17098065       0.65989223       0.82800000E-02   0.80150000E-01    1.0000000      -0.53159752
  2159.8600       0.74271300       0.99889479       0.17083276       0.65979014       0.30225000E-01   0.15052500        1.0000000      -0.52682666
  2159.9600       0.74571800       0.99956937       0.17068487       0.65968805       0.38385000E-01   0.81025000E-01    1.0000000      -0.52203425
  2160.0600       0.75039000        1.0001988       0.17053698       0.65958596       0.46430000E-01   0.10910000        1.0000000      -0.51372098
  2160.1600       0.75500400        1.0007836       0.17038909       0.65948388       0.60205000E-01   0.10275000E-01    1.0000000      -0.50543504
  2160.2600       0.76243100        1.0013240       0.17024120       0.65938179       0.48485000E-01  -0.66725000E-01    1.0000000      -0.49127311
  2160.3600       0.76470100        1.0018205       0.17009331       0.65927970       0.46860000E-01   0.41616667E-01    1.0000000      -0.48762593
  2160.4600       0.77180300        1.0022734       0.16994542       0.65917761       0.56808333E-01   0.25665000E-01    1.0000000      -0.47395236
  2160.9600       0.79878600        1.0038977       0.16920597       0.65866718       0.62259000E-01   0.20102667E-01    1.0000000      -0.42180335
  2161.4600       0.83406200        1.0044901       0.16846652       0.65815674       0.76911000E-01   0.15777000E-01    1.0000000      -0.35047785
  2161.9600       0.87569700        1.0040981       0.16772707       0.65764630       0.78036000E-01  -0.26251000E-01    1.0000000      -0.26405120
  2162.4600       0.91209800        1.0027695       0.16698763       0.65713586       0.50660000E-01  -0.60370000E-01    1.0000000      -0.18646201
  2162.9600       0.92635700        1.0005521       0.16624818       0.65662542       0.17666000E-01  -0.51608000E-01    1.0000000      -0.15257900
  2163.4600       0.92976400       0.99749357       0.16550873       0.65611499      -0.94800000E-03  -0.97760000E-02    1.0000000      -0.13928290
  2163.9600       0.92540900       0.99364162       0.16476928       0.65560455       0.78900000E-02   0.33139000E-01    1.0000000      -0.14031740
  2164.4600       0.93765400       0.98904398       0.16402983       0.65509411       0.32191000E-01   0.34339000E-01    1.0000000      -0.10568124
  2164.9600       0.95760000       0.98374836       0.16329038       0.65458367       0.42229000E-01   0.11099000E-01    1.0000000      -0.53772968E-01
  2165.4600       0.97988300       0.97780250       0.16255094       0.65407324       0.43290000E-01  -0.10520000E-02    1.0000000       0.42784520E-02
  2165.9600        1.0008900       0.97125411       0.16181149       0.65356280       0.41177000E-01  -0.80100000E-02    1.0000000       0.60944908E-01
  2166.4600        1.0210600       0.96415091       0.16107204       0.65305236       0.35280000E-01  -0.11467000E-01    1.0000000       0.11703105
  2166.9600        1.0361700       0.95654063       0.16033259       0.65254192       0.29710000E-01  -0.12770000E-01    1.0000000       0.16375433
  2167.4600        1.0507700       0.94847097       0.15959314       0.65203148       0.22510000E-01  -0.13880000E-01    1.0000000       0.21037348
  2167.9600        1.0586800       0.93998967       0.15885369       0.65152105       0.15830000E-01  -0.80900000E-02    1.0000000       0.24408148
  2168.4600        1.0666000       0.93114444       0.15811425       0.65101061       0.14420000E-01  -0.11910000E-01    1.0000000       0.27855844
  2168.9600        1.0731000       0.92198301       0.15737480       0.65050017       0.39200000E-02  -0.25860000E-01    1.0000000       0.31076549
  2169.4600        1.0705200       0.91255309       0.15663535       0.64998973      -0.11440000E-01  -0.27580000E-01    1.0000000       0.32485205
  2169.9600        1.0616600       0.90290240       0.15589590       0.64947929      -0.23660000E-01  -0.33280000E-01    1.0000000       0.32647806
  2170.4600        1.0468600       0.89307867       0.15515645       0.64896886      -0.44720000E-01  -0.25298000E-01    1.0000000       0.31624458
  2170.9600        1.0169400       0.88312962       0.15441700       0.64845842      -0.48958000E-01   0.68260000E-02    1.0000000       0.27517520
  2171.4600       0.99790200       0.87310296       0.15367756       0.64794798      -0.37894000E-01   0.10091000E-01    1.0000000       0.25664377
  2171.9600       0.97904600       0.86304642       0.15293811       0.64743754      -0.38867000E-01  -0.34020000E-02    1.0000000       0.23854807
  2172.4600       0.95903500       0.85300772       0.15219866       0.64692710      -0.41296000E-01  -0.10250000E-01    1.0000000       0.21804047
  2172.9600       0.93775000       0.84303457       0.15145921       0.64641667      -0.49117000E-01  -0.93800000E-02    1.0000000       0.19477814
  2173.4600       0.90991800       0.83317471       0.15071976       0.64590623      -0.50676000E-01  -0.54710000E-02    1.0000000       0.15781923
  2173.9600       0.88707400       0.82347584       0.14998032       0.64539579      -0.54588000E-01  -0.43940000E-02    1.0000000       0.13078684
  2174.4600       0.85533000       0.81398568       0.14924087       0.64488535      -0.55070000E-01   0.65610000E-02    1.0000000       0.85022784E-01
  2174.9600       0.83200400       0.80474085       0.14850142       0.64437491      -0.48027000E-01   0.10120000E-01    1.0000000       0.56065475E-01
  2175.4600       0.80730300       0.79574488       0.14776197       0.64386448      -0.44950000E-01   0.65070000E-02    1.0000000       0.23768773E-01
  2175.9600       0.78705400       0.78699516       0.14702252       0.64335404      -0.41520000E-01   0.11880000E-02    1.0000000       0.12100658E-03
  2176.4600       0.76578300       0.77848908       0.14628307       0.64284360      -0.43762000E-01  -0.18130000E-02    1.0000000      -0.26129507E-01
  2176.9600       0.74329200       0.77022405       0.14554363       0.64233316      -0.43333000E-01   0.67350000E-02    1.0000000      -0.55384590E-01
  2177.4600       0.72245000       0.76219746       0.14480418       0.64182272      -0.37027000E-01   0.16430000E-01    1.0000000      -0.81738910E-01
  2177.9600       0.70626500       0.75440669       0.14406473       0.64131229      -0.26903000E-01   0.13721000E-01    1.0000000      -0.99001289E-01
  2178.4600       0.69554700       0.74684916       0.14332528       0.64080185      -0.23306000E-01   0.22770000E-02    1.0000000      -0.10550064
  2178.9600       0.68295900       0.73952224       0.14258583       0.64029141      -0.24626000E-01   0.64670000E-02    1.0000000      -0.11631983
  2179.4600       0.67092100       0.73242333       0.14184638       0.63978097      -0.16839000E-01   0.11814000E-01    1.0000000      -0.12647686
  2179.9600       0.66612000       0.72554984       0.14110694       0.63927053      -0.12812000E-01   0.21430000E-02    1.0000000      -0.12221487
  2180.4600       0.65810900       0.71889915       0.14036749       0.63876010      -0.14696000E-01   0.21730000E-02    1.0000000      -0.12501229
  2180.9600       0.65142400       0.71246866       0.13962804       0.63824966      -0.10639000E-01   0.56250000E-02    1.0000000      -0.12553568
  2181.4600       0.64747000       0.70625577       0.13888859       0.63773922      -0.90710000E-02   0.20800000E-02    1.0000000      -0.12089036
  2181.9600       0.64235300       0.70025786       0.13814914       0.63722878      -0.85590000E-02   0.33710000E-02    1.0000000      -0.11907881
  2182.4600       0.63891100       0.69447233       0.13740969       0.63671834      -0.57000000E-02   0.72630000E-02    1.0000000      -0.11425945
  2182.9600       0.63665300       0.68889659       0.13667025       0.63620791      -0.12960000E-02   0.74510000E-02    1.0000000      -0.10743665
  2183.4600       0.63761500       0.68352801       0.13593080       0.63569747       0.17510000E-02  -0.28260000E-02    1.0000000      -0.94418099E-01
  2183.9600       0.63840400       0.67836400       0.13519135       0.63518703      -0.41220000E-02  -0.44590000E-02    1.0000000      -0.82175998E-01
  2184.4600       0.63349300       0.67340196       0.13445190       0.63467659      -0.27080000E-02   0.84550000E-02    1.0000000      -0.82071023E-01
  2184.9600       0.63569600       0.66863927       0.13371245       0.63416616       0.43330000E-02   0.50640000E-02    1.0000000      -0.67746385E-01
  2185.4600       0.63782600       0.66407333       0.13297301       0.63365572       0.23560000E-02  -0.10192000E-01    1.0000000      -0.53976479E-01
  2185.9600       0.63805200       0.65970153       0.13223356       0.63314528      -0.58590000E-02  -0.58000000E-02    1.0000000      -0.44521317E-01
  2186.4600       0.63196700       0.65552128       0.13149411       0.63263484      -0.34440000E-02   0.80360000E-02    1.0000000      -0.48438345E-01
  2186.9600       0.63460800       0.65152996       0.13075466       0.63212440       0.21770000E-02  -0.73300000E-03    1.0000000      -0.34799271E-01
  2187.4600       0.63414400       0.64772497       0.13001521       0.63161397      -0.41770000E-02  -0.60130000E-02    1.0000000      -0.27928673E-01
  2187.9600       0.63043100       0.64410371       0.12927576       0.63110353      -0.38360000E-02  -0.55000000E-04    1.0000000      -0.28117323E-01
  2188.4600       0.63030800       0.64066356       0.12853632       0.63059309      -0.42320000E-02  -0.17870000E-02    1.0000000      -0.21295757E-01
  2188.9600       0.62619900       0.63740193       0.12779687       0.63008265      -0.56230000E-02  -0.14860000E-02    1.0000000      -0.23038332E-01
  2189.4600       0.62468500       0.63431620       0.12705742       0.62957221      -0.57180000E-02   0.25210000E-02    1.0000000      -0.19806150E-01
  2189.9600       0.62048100       0.63140378       0.12631797       0.62906178      -0.31020000E-02   0.36060000E-02    1.0000000      -0.22462225E-01
  2190.4600       0.62158300       0.62866206       0.12557852       0.62855134      -0.21120000E-02   0.70000000E-05    1.0000000      -0.14557775E-01
  2190.9600       0.61836900       0.62608843       0.12483907       0.62804090      -0.30950000E-02   0.29650000E-02    1.0000000      -0.15874664E-01
  2191.4600       0.61848800       0.62368028       0.12409963       0.62753046       0.85300000E-03   0.23820000E-02    1.0000000      -0.10677701E-01
  2191.9600       0.61922200       0.62143502       0.12336018       0.62702002      -0.71300000E-03  -0.32260000E-02    1.0000000      -0.45509766E-02
  2192.4600       0.61777500       0.61935003       0.12262073       0.62650959      -0.23730000E-02  -0.73960000E-02    1.0000000      -0.32389838E-02
  2192.9600       0.61684900       0.61742272       0.12188128       0.62599915      -0.81090000E-02   0.25300000E-02    1.0000000      -0.11798205E-02
  2193.4600       0.60966600       0.61565046       0.12114183       0.62548871       0.15700000E-03   0.14493000E-01    1.0000000      -0.12306790E-01
  2193.9600       0.61700600       0.61403067       0.12040238       0.62497827       0.63840000E-02   0.87700000E-03    1.0000000       0.61186287E-02
  2194.4600       0.61605000       0.61256074       0.11966294       0.62446783       0.10340000E-02  -0.83660000E-02    1.0000000       0.71755156E-02
  2194.9600       0.61804000       0.61123805       0.11892349       0.62395740      -0.19820000E-02  -0.45450000E-02    1.0000000       0.13987911E-01
  2195.4600       0.61406800       0.61006001       0.11818404       0.62344696      -0.35110000E-02   0.53180000E-02    1.0000000       0.82422592E-02
  2195.9600       0.61452900       0.60902400       0.11744459       0.62293652       0.33360000E-02   0.76920000E-02    1.0000000       0.11320782E-01
  2196.4600       0.61740400       0.60812743       0.11670514       0.62242608       0.41810000E-02  -0.10700000E-02    1.0000000       0.19076851E-01
  2196.9600       0.61871000       0.60736769       0.11596569       0.62191564       0.22660000E-02  -0.59510000E-02    1.0000000       0.23324960E-01
  2197.4600       0.61967000       0.60674217       0.11522625       0.62140521      -0.17700000E-02  -0.57920000E-02    1.0000000       0.26585512E-01
  2197.9600       0.61694000       0.60624827       0.11448680       0.62089477      -0.35260000E-02   0.97400000E-03    1.0000000       0.21987074E-01
  2198.4600       0.61614400       0.60588338       0.11374735       0.62038433      -0.79600000E-03   0.32950000E-02    1.0000000       0.21100515E-01
  2198.9600       0.61614400       0.60564490       0.11300790       0.61987389      -0.23100000E-03  -0.20150000E-02    1.0000000       0.21590946E-01
  2199.4600       0.61591300       0.60553022       0.11226845       0.61936345      -0.28110000E-02  -0.79400000E-03    1.0000000       0.21351743E-01
  2199.9600       0.61333300       0.60553673       0.11152901       0.61885302      -0.10250000E-02   0.40363333E-02    1.0000000       0.16032690E-01
  2200.4600       0.61488800       0.60566183       0.11078956       0.61834258       0.12253333E-02   0.51500000E-03    1.0000000       0.18973207E-01
  2201.4600       0.61517100       0.60625739       0.10931066       0.61732170      -0.25250000E-03  -0.20266667E-02    1.0000000       0.18330441E-01
  2202.4600       0.61438300       0.60729605       0.10783176       0.61630083      -0.28280000E-02  -0.22950000E-03    1.0000000       0.14573997E-01
  2203.4600       0.60951500       0.60875697       0.10635287       0.61527995      -0.71150000E-03   0.17412500E-02    1.0000000       0.15588609E-02
  2204.4600       0.61296000       0.61061930       0.10487397       0.61425908       0.65450000E-03   0.62725000E-03    1.0000000       0.48135573E-02
  2205.4600       0.61082400       0.61286219       0.10339507       0.61323820       0.54300000E-03   0.12022500E-02    1.0000000      -0.41914554E-02
  2206.4600       0.61404600       0.61546482       0.10191618       0.61221732       0.30590000E-02   0.31775000E-03    1.0000000      -0.29177395E-02
  2207.4600       0.61694200       0.61840633       0.10043728       0.61119645       0.11785000E-02  -0.16395000E-02    1.0000000      -0.30113304E-02
  2208.4600       0.61640300       0.62166588       0.98958385E-01   0.61017557      -0.22000000E-03   0.11732500E-02    1.0000000      -0.10822889E-01
  2209.4600       0.61650200       0.62522264       0.97479488E-01   0.60915470       0.35250000E-02   0.20177500E-02    1.0000000      -0.17933606E-01
  2210.4600       0.62345300       0.62905574       0.96000592E-01   0.60813382       0.38155000E-02  -0.54250000E-04    1.0000000      -0.11521799E-01
  2211.4600       0.62413300       0.63314437       0.94521695E-01   0.60711294       0.34165000E-02   0.13375000E-02    1.0000000      -0.18531484E-01
  2212.4600       0.63028600       0.63746766       0.93042799E-01   0.60609207       0.64905000E-02   0.25002500E-02    1.0000000      -0.14768775E-01
  2213.4600       0.63711400       0.64200479       0.91563902E-01   0.60507119       0.84170000E-02   0.69775000E-03    1.0000000      -0.10057687E-01
  2214.4600       0.64712000       0.64673489       0.90085006E-01   0.60405032       0.78860000E-02  -0.96625000E-03    1.0000000       0.79195298E-03
  2215.4600       0.65288600       0.65163715       0.88606109E-01   0.60302944       0.64845000E-02   0.39900000E-03    1.0000000       0.25682130E-02
  2216.4600       0.66008900       0.65669070       0.87127213E-01   0.60200856       0.86840000E-02   0.13260000E-02    1.0000000       0.69884583E-02
  2217.4600       0.67025400       0.66187471       0.85648316E-01   0.60098769       0.91365000E-02  -0.11512500E-02    1.0000000       0.17231647E-01
  2218.4600       0.67836200       0.66716833       0.84169419E-01   0.59996681       0.63815000E-02  -0.24057500E-02    1.0000000       0.23019286E-01
  2219.4600       0.68301700       0.67255073       0.82690523E-01   0.59894594       0.43250000E-02   0.23300000E-03    1.0000000       0.21523426E-01
  2220.4600       0.68701200       0.67800106       0.81211626E-01   0.59792506       0.68475000E-02   0.19865000E-02    1.0000000       0.18530611E-01
  2221.4600       0.69671200       0.68349847       0.79732730E-01   0.59690418       0.82980000E-02  -0.62250000E-04    1.0000000       0.27173047E-01
  2222.4600       0.70360800       0.68902213       0.78253833E-01   0.59588331       0.67230000E-02  -0.18310000E-02    1.0000000       0.29995211E-01
  2223.4600       0.71015800       0.69455119       0.76774937E-01   0.59486243       0.46360000E-02  -0.17125000E-02    1.0000000       0.32094733E-01
  2224.4600       0.71288000       0.70006480       0.75296040E-01   0.59384156       0.32980000E-02   0.67500000E-04    1.0000000       0.26353895E-01
  2225.4600       0.71675400       0.70554213       0.73817144E-01   0.59282068       0.47710000E-02   0.21075000E-03    1.0000000       0.23056712E-01
  2226.4600       0.72242200       0.71096234       0.72338247E-01   0.59179981       0.37195000E-02  -0.18982500E-02    1.0000000       0.23566291E-01
  2227.4600       0.72419300       0.71630458       0.70859351E-01   0.59077893       0.97450000E-03  -0.20147500E-02    1.0000000       0.16222200E-01
  2228.4600       0.72437100       0.72154800       0.69380454E-01   0.58975805      -0.31000000E-03   0.18297500E-02    1.0000000       0.58053786E-02
  2229.4600       0.72357300       0.72667177       0.67901558E-01   0.58873718       0.46340000E-02   0.29547500E-02    1.0000000      -0.63724788E-02
  2230.4600       0.73363900       0.73165504       0.66422661E-01   0.58771630       0.55995000E-02  -0.10177500E-02    1.0000000       0.40799329E-02
  2231.4600       0.73477200       0.73647697       0.64943765E-01   0.58669543       0.25985000E-02   0.31525000E-03    1.0000000      -0.35061895E-02
  2232.4600       0.73883600       0.74111671       0.63464868E-01   0.58567455       0.62300000E-02   0.24155000E-02    1.0000000      -0.46901863E-02
  2233.4600       0.74723200       0.74555343       0.61985971E-01   0.58465367       0.74295000E-02  -0.12492500E-02    1.0000000       0.34518999E-02
  2234.4600       0.75369500       0.74976628       0.60507075E-01   0.58363280       0.37315000E-02  -0.29642500E-02    1.0000000       0.80792326E-02
  2235.4600       0.75469500       0.75373442       0.59028178E-01   0.58261192       0.15010000E-02   0.32150000E-03    1.0000000       0.19753832E-02
  2236.4600       0.75669700       0.75743701       0.57549282E-01   0.58159105       0.43745000E-02   0.72550000E-03    1.0000000      -0.15217962E-02
  2237.4600       0.76344400       0.76085320       0.56070385E-01   0.58057017       0.29520000E-02  -0.26087500E-02    1.0000000       0.53278727E-02
  2238.4600       0.76260100       0.76396215       0.54591489E-01   0.57954929      -0.84300000E-03  -0.37950000E-02    1.0000000      -0.27991366E-02
