# XDI/1.0 Athena/0.9.26
# Element.edge:                  K
# Element.symbol:                P
# Column.1:                      energy eV
# Column.2:                      norm
# Column.3:                      nbkg
# Column.4:                      flat
# Column.5:                      fbkg
# Column.6:                      nder
# Column.7:                      nsec
# Athena.e0:                     2154
# Athena.eshift:                 0
# Athena.rbkg:                   1.0
# Athena.importance:             1
# Athena.standard:               None
# Athena.bkg_kweight:            2
# Athena.edge_step:              1.3562675
# Athena.fixed_step:             no
# Athena.pre_edge_range:         -13 -9.5
# Athena.pre_edge_line:          -9.831874 + 0.00468196 * E
# Athena.normalization_range:    26.5 80
# Athena.post_edge_polynomial:   -8.002248 + 0.00446221 * E + 0 * E^2 + 0 * E^3
# Athena.spline_range_energy:    0.000 86.616
# Athena.clamps:                 0 24
# Athena.spline_range_k:         0.000 4.768
# Athena.kweight:                2
# Athena.window:                 hanning
# Athena.phase_correction:       no
# Athena.k_range:                2.768 3.000
# Athena.dk:                     1
# Athena.r_range:                1 3
# Athena.dr:                     0.0
# Athena.window:                 hanning
# Athena.plot_multiplier:        1
# Athena.y_offset:               0
# ///
#------------------------
#   e         norm        nbkg        flat        fbkg        nder        nsec
  2125.4600       0.56873816E-01   0.56873815E-01   0.56873815E-01   0.56873815E-01  -0.46635069E-02   0.36911967E-03
  2127.4600       0.47546802E-01   0.47546801E-01   0.47546801E-01   0.47546801E-01  -0.39252676E-02   0.19101137E-03
  2129.4600       0.41172746E-01   0.41172745E-01   0.41172745E-01   0.41172745E-01  -0.38994614E-02  -0.10479128E-03
  2131.4600       0.31948956E-01   0.31948956E-01   0.31948956E-01   0.31948956E-01  -0.43444327E-02   0.11267136E-03
  2133.4600       0.23795015E-01   0.23795014E-01   0.23795014E-01   0.23795014E-01  -0.34487760E-02   0.17299316E-03
  2135.4600       0.18153852E-01   0.18153852E-01   0.18153852E-01   0.18153852E-01  -0.36524600E-02  -0.22442107E-04
  2137.4600       0.91851750E-02   0.91851748E-02   0.91851748E-02   0.91851748E-02  -0.35385444E-02   0.36726102E-03
  2139.4600       0.39996747E-02   0.39996746E-02   0.39996746E-02   0.39996746E-02  -0.21834160E-02   0.10014618E-02
  2140.4600       0.26349272E-02   0.26349271E-02   0.26349271E-02   0.26349271E-02  -0.53415916E-03  -0.25564443E-02
  2140.6600       0.33586837E-02   0.33586836E-02   0.33586836E-02   0.33586836E-02  -0.52511491E-02  -0.26217788E-01
  2140.7600       0.10595824E-02   0.10595824E-02   0.10595824E-02   0.10595824E-02  -0.83994957E-02   0.28589494E-01
  2140.8600       0.16787846E-02   0.16787846E-02   0.16787846E-02   0.16787846E-02   0.46674961E-03   0.13456048E-01
  2140.9600       0.11529324E-02   0.11529323E-02   0.11529323E-02   0.11529323E-02  -0.57082861E-02   0.31336002E-03
  2141.0600       0.53712738E-03   0.53712737E-03   0.53712737E-03   0.53712737E-03   0.52942162E-03   0.86634829E-02
  2141.1600       0.12588167E-02   0.12588167E-02   0.12588167E-02   0.12588167E-02  -0.39755895E-02  -0.18635705E-01
  2141.2600      -0.25799052E-03  -0.25799050E-03  -0.25799051E-03  -0.25799050E-03  -0.31977193E-02   0.69197266E-01
  2141.3600       0.61927283E-03   0.61927282E-03   0.61927281E-03   0.61927282E-03   0.98638636E-02   0.21935201E-02
  2141.4600       0.17147822E-02   0.17147822E-02   0.17147822E-02   0.17147822E-02  -0.27590153E-02  -0.67777929E-01
  2141.5600       0.67469767E-04   0.67469772E-04   0.67469766E-04   0.67469772E-04  -0.36917222E-02   0.18451375E-01
  2141.6600       0.97643777E-03   0.97643775E-03   0.97643775E-03   0.97643775E-03   0.93125976E-03  -0.30561818E-01
  2141.7600       0.25372172E-03   0.25372172E-03   0.25372171E-03   0.25372172E-03  -0.98040859E-02  -0.44017866E-01
  2141.8600      -0.98437940E-03  -0.98437937E-03  -0.98437938E-03  -0.98437937E-03  -0.78723135E-02   0.33050266E-01
  2141.9600      -0.13207410E-02  -0.13207409E-02  -0.13207409E-02  -0.13207409E-02  -0.31940327E-02   0.47298930E-01
  2142.0600      -0.16231859E-02  -0.16231859E-02  -0.16231859E-02  -0.16231859E-02   0.15874725E-02   0.54450912E-01
  2142.1600      -0.10032465E-02  -0.10032464E-02  -0.10032465E-02  -0.10032464E-02   0.76961496E-02   0.25013503E-01
  2142.2600      -0.83956028E-04  -0.83956020E-04  -0.83956026E-04  -0.83956020E-04   0.65901731E-02  -0.25253131E-01
  2142.3600       0.31478813E-03   0.31478813E-03   0.31478812E-03   0.31478813E-03   0.26455234E-02  -0.66856282E-01
  2142.4600       0.44514865E-03   0.44514865E-03   0.44514864E-03   0.44514865E-03  -0.67810833E-02  -0.58911684E-01
  2142.5600      -0.10414285E-02  -0.10414285E-02  -0.10414285E-02  -0.10414285E-02  -0.91368134E-02   0.99169230E-02
  2142.6600      -0.13822140E-02  -0.13822140E-02  -0.13822140E-02  -0.13822140E-02  -0.47976987E-02   0.59372507E-01
  2142.7600      -0.20009683E-02  -0.20009682E-02  -0.20009682E-02  -0.20009682E-02   0.27376881E-02   0.70063614E-01
  2142.8600      -0.83467640E-03  -0.83467637E-03  -0.83467637E-03  -0.83467637E-03   0.92150241E-02   0.55298827E-03
  2142.9600      -0.15796347E-03  -0.15796346E-03  -0.15796346E-03  -0.15796346E-03   0.28482858E-02  -0.32386680E-01
  2143.0600      -0.26501924E-03  -0.26501923E-03  -0.26501924E-03  -0.26501923E-03   0.27376881E-02   0.55096065E-01
  2143.1600       0.38957416E-03   0.38957415E-03   0.38957415E-03   0.38957415E-03   0.13867499E-01  -0.51907166E-01
  2143.2600       0.25084805E-02   0.25084804E-02   0.25084804E-02   0.25084804E-02  -0.76437450E-02  -0.15120543
  2143.3600      -0.11391748E-02  -0.11391748E-02  -0.11391748E-02  -0.11391748E-02  -0.16373587E-01   0.55132931E-01
  2143.4600      -0.76623681E-03  -0.76623678E-03  -0.76623679E-03  -0.76623678E-03   0.33828411E-02   0.76570443E-01
  2143.5600      -0.46260663E-03  -0.46260661E-03  -0.46260662E-03  -0.46260661E-03  -0.10594980E-02  -0.22101098E-01
  2143.6600      -0.97813641E-03  -0.97813638E-03  -0.97813638E-03  -0.97813638E-03  -0.10373785E-02  -0.42948756E-02
  2143.7600      -0.67008233E-03  -0.67008230E-03  -0.67008231E-03  -0.67008230E-03  -0.19184731E-02   0.32534143E-01
  2143.8600      -0.13618310E-02  -0.13618310E-02  -0.13618310E-02  -0.13618310E-02   0.54694502E-02   0.67538301E-01
  2143.9600       0.42380771E-03   0.42380770E-03   0.42380770E-03   0.42380770E-03   0.11589187E-01   0.20829225E-01
  2144.0600       0.95600637E-03   0.95600635E-03   0.95600635E-03   0.95600635E-03   0.96352951E-02  -0.53418667E-01
  2144.1600       0.23508667E-02   0.23508667E-02   0.23508667E-02   0.23508667E-02   0.90545364E-03  -0.81602636E-01
  2144.2600       0.11370971E-02   0.11370971E-02   0.11370971E-02   0.11370971E-02  -0.66852320E-02  -0.27612548E-01
  2144.3600       0.10138203E-02   0.10138203E-02   0.10138203E-02   0.10138203E-02  -0.46170559E-02   0.63648950E-01
  2144.4600       0.21368592E-03   0.21368592E-03   0.21368592E-03   0.21368592E-03   0.60445580E-02   0.96312124E-01
  2144.5600       0.22227319E-02   0.22227319E-02   0.22227319E-02   0.22227319E-02   0.14645369E-01   0.27465084E-02
  2144.6600       0.31427597E-02   0.31427596E-02   0.31427596E-02   0.31427596E-02   0.65938597E-02  -0.46451015E-01
  2144.7600       0.35415039E-02   0.35415038E-02   0.35415038E-02   0.35415038E-02   0.53551659E-02   0.32441979E-02
  2144.8600       0.42137929E-02   0.42137928E-02   0.42137928E-02   0.42137928E-02   0.72426992E-02  -0.20810792E-01
  2144.9600       0.49900437E-02   0.49900436E-02   0.49900436E-02   0.49900436E-02   0.11930075E-02  -0.28626359E-01
  2145.0600       0.44523944E-02   0.44523943E-02   0.44523943E-02   0.44523943E-02   0.15174273E-02   0.88662453E-02
  2145.1600       0.52935292E-02   0.52935290E-02   0.52935290E-02   0.52935290E-02   0.29662566E-02  -0.24515813E-02
  2145.2600       0.50456457E-02   0.50456456E-02   0.50456456E-02   0.50456456E-02   0.10271111E-02   0.38819777E-01
  2145.3600       0.54989514E-02   0.54989512E-02   0.54989512E-02   0.54989512E-02   0.10730212E-01   0.62100583E-01
  2145.4600       0.71916881E-02   0.71916879E-02   0.71916879E-02   0.71916879E-02   0.13447228E-01  -0.44976379E-02
  2145.5600       0.81883969E-02   0.81883967E-02   0.81883967E-02   0.81883967E-02   0.98306843E-02  -0.37916562E-01
  2145.6600       0.91578250E-02   0.91578247E-02   0.91578247E-02   0.91578247E-02   0.58639151E-02  -0.45898026E-01
  2145.7600       0.93611799E-02   0.93611797E-02   0.93611797E-02   0.93611797E-02   0.65107904E-03   0.36294464E-01
  2145.8600       0.92880408E-02   0.92880405E-02   0.92880405E-02   0.92880405E-02   0.13122808E-01   0.25216265E-01
  2145.9600       0.11985741E-01   0.11985741E-01   0.11985741E-01   0.11985741E-01   0.56943321E-02  -0.56810328E-01
  2146.0600       0.10426907E-01   0.10426907E-01   0.10426907E-01   0.10426907E-01   0.17607422E-02   0.52589185E-01
  2146.1600       0.12337890E-01   0.12337890E-01   0.12337890E-01   0.12337890E-01   0.16212169E-01   0.92367474E-01
  2146.2600       0.13669341E-01   0.13669341E-01   0.13669341E-01   0.13669341E-01   0.20234237E-01   0.58248098E-02
  2146.3600       0.16384737E-01   0.16384737E-01   0.16384737E-01   0.16384737E-01   0.17377131E-01  -0.44718318E-01
  2146.4600       0.17144767E-01   0.17144767E-01   0.17144767E-01   0.17144767E-01   0.11290573E-01  -0.88109464E-02
  2146.5600       0.18642852E-01   0.18642852E-01   0.18642852E-01   0.18642852E-01   0.15614942E-01   0.40368144E-02
  2146.6600       0.20267755E-01   0.20267755E-01   0.20267755E-01   0.20267755E-01   0.12097936E-01   0.34285273E-02
  2146.7600       0.21062439E-01   0.21062439E-01   0.21062439E-01   0.21062439E-01   0.16300647E-01   0.40368144E-02
  2146.8600       0.23527885E-01   0.23527884E-01   0.23527884E-01   0.23527884E-01   0.12905299E-01  -0.11502156E-01
  2146.9600       0.23643499E-01   0.23643498E-01   0.23643498E-01   0.23643498E-01   0.14000216E-01   0.68275618E-01
  2147.0600       0.26327928E-01   0.26327927E-01   0.26327927E-01   0.26327927E-01   0.26560423E-01   0.32939668E-01
  2147.1600       0.28955584E-01   0.28955583E-01   0.28955583E-01   0.28955583E-01   0.20588149E-01   0.62303345E-02
  2147.2600       0.30445558E-01   0.30445557E-01   0.30445557E-01   0.30445557E-01   0.27806490E-01   0.18598839E-01
  2147.3600       0.34516882E-01   0.34516881E-01   0.34516881E-01   0.34516881E-01   0.24307917E-01  -0.45584666E-01
  2147.4600       0.35307141E-01   0.35307141E-01   0.35307141E-01   0.35307141E-01   0.18689556E-01   0.92717700E-02
  2147.5600       0.38254793E-01   0.38254792E-01   0.38254792E-01   0.38254792E-01   0.26162271E-01   0.34598633E-01
  2147.6600       0.40539596E-01   0.40539595E-01   0.40539595E-01   0.40539595E-01   0.25609283E-01   0.85418255E-01
  2147.7600       0.43376649E-01   0.43376648E-01   0.43376648E-01   0.43376648E-01   0.43245922E-01   0.16091959E-01
  2147.8600       0.49188780E-01   0.49188779E-01   0.49188779E-01   0.49188779E-01   0.28827675E-01  -0.79685610E-01
  2147.9600       0.49142184E-01   0.49142183E-01   0.49142183E-01   0.49142183E-01   0.27308800E-01   0.11725195
  2148.0600       0.54650540E-01   0.54650539E-01   0.54650539E-01   0.54650539E-01   0.52278064E-01   0.10539956
  2148.1600       0.59597797E-01   0.59597796E-01   0.59597796E-01   0.59597796E-01   0.48388713E-01  -0.78892993E-02
  2148.2600       0.64328283E-01   0.64328281E-01   0.64328281E-01   0.64328281E-01   0.50700204E-01  -0.50690591E-02
  2148.3600       0.69737838E-01   0.69737836E-01   0.69737836E-01   0.69737836E-01   0.47374901E-01  -0.23962825E-03
  2148.4600       0.73803263E-01   0.73803261E-01   0.73803261E-01   0.73803261E-01   0.50652278E-01   0.44294360E-01
  2148.5600       0.79868294E-01   0.79868292E-01   0.79868292E-01   0.79868292E-01   0.56233773E-01   0.14639443
  2148.6600       0.85050018E-01   0.85050016E-01   0.85050016E-01   0.85050016E-01   0.79931164E-01   0.14335299
  2148.7600       0.95854527E-01   0.95854524E-01   0.95854524E-01   0.95854524E-01   0.84904372E-01  -0.44441824E-01
  2148.8600       0.10203089       0.10203089       0.10203089       0.10203089       0.71042799E-01   0.37879697E-01
  2148.9600       0.11006309       0.11006308       0.11006308       0.11006308       0.92480311E-01   0.16619141
  2149.0600       0.12052695       0.12052695       0.12052695       0.12052695       0.10428108       0.29548007E-01
  2149.1600       0.13091930       0.13091930       0.13091930       0.13091930       0.98389913E-01   0.18082716E-01
  2149.2600       0.14020494       0.14020493       0.14020493       0.14020493       0.10789762       0.21212630
  2149.3600       0.15249883       0.15249882       0.15249882       0.15249882       0.14081517       0.20316789
  2149.4600       0.16836797       0.16836797       0.16836797       0.16836797       0.14853120       0.13874476
  2149.5600       0.18220507       0.18220506       0.18220506       0.18220506       0.16856412       0.30209749
  2149.6600       0.20208080       0.20208079       0.20208079       0.20208079       0.20895070       0.34816142
  2149.7600       0.22399521       0.22399520       0.22399520       0.22399520       0.23819641       0.38515633
  2149.8600       0.24972008       0.24972007       0.24972007       0.24972007       0.28598197       0.55890525
  2149.9600       0.28119160       0.28119159       0.28119159       0.28119159       0.34997746       0.67024022
  2150.0600       0.31971557       0.31971556       0.31971556       0.31971556       0.42003001       0.71324427
  2150.1600       0.36519760       0.36519759       0.36519759       0.36519759       0.49262631        1.0941610
  2150.2600       0.41824083       0.41824082       0.41824082       0.41824082       0.63886222        1.5105243
  2150.3600       0.49297005       0.49297003       0.49297003       0.49297003       0.79473118        1.6147073
  2150.4600       0.57718707       0.57718705       0.57718705       0.57718705       0.96180368        1.9509426
  2150.5600       0.68533078       0.68533076       0.68533076       0.68533076        1.1849197        2.0442317
  2150.6600       0.81417101       0.81417099       0.81417099       0.81417099        1.3706500        1.7489176
  2150.7600       0.95946079       0.95946076       0.95946076       0.95946076        1.5347032        1.6232049
  2150.8600        1.1211116        1.1211116        1.1211116        1.1211116        1.6952910        2.0364715
  2150.9600        1.2985190        1.2985190        1.2985190        1.2985190        1.9419975        2.7708399
  2151.0600        1.5095112        1.5095111        1.5095111        1.5095111        2.2494590        3.6180179
  2151.1600        1.7484108        1.7484107        1.7484107        1.7484107        2.6656011        4.7697082
  2151.2600        2.0426314        2.0426313        2.0426313        2.0426313        3.2034006        6.7035081
  2151.3600        2.3890909        2.3890908        2.3890908        2.3890908        4.0063027        8.4992454
  2151.4600        2.8438919        2.8438918        2.8438918        2.8438918        4.9032497        8.9067977
  2151.5600        3.3697409        3.3697408        3.3697408        3.3697408        5.7876623        8.0057955
  2151.6600        4.0014244        4.0014243        4.0014243        4.0014243        6.5044088        3.5123972
  2151.7600        4.6706226        4.6706225        4.6706225        4.6706225        6.4901417       -1.0982347
  2151.8600        5.2994527        5.2994526        5.2994526        5.2994526        6.2847619       -4.6062080
  2151.9600        5.9275750        5.9275748        5.9275748        5.9275748        5.5689001       -11.013867
  2152.0600        6.4132327        6.4132326        6.4132326        6.4132326        4.0819884       -14.947089
  2152.1600        6.7439727        6.7439725        6.7439725        6.7439725        2.5794824       -14.210877
  2152.2600        6.9291292        6.9291290        6.9291290        6.9291290        1.2398130       -13.425634
  2152.3600        6.9919353        6.9919351        6.9919351        6.9919351      -0.10564433       -11.735333
  2152.4600        6.9080003        6.9080002        6.9080002        6.9080002       -1.1072535       -8.4868953
  2152.5600        6.7704846        6.7704844        6.7704844        6.7704844       -1.8030234       -6.3855399
  2152.6600        6.5473957        6.5473955        6.5473955        6.5473955       -2.3843615       -4.6032587
  2152.7600        6.2936122        6.2936121        6.2936121        6.2936121       -2.7236751       -3.4508311
  2152.8600        6.0026606        6.0026605        6.0026605        6.0026605       -3.0745278       -2.5756350
  2152.9600        5.6787067        5.6787065        5.6787065        5.6787065       -3.2388021       -1.1876345
  2153.0600        5.3549002        5.3549001        5.3549001        5.3549001       -3.3120546      -0.35999536
  2153.1600        5.0162958        5.0162956        5.0162956        5.0162956       -3.3108012        2.2716758
  2153.2600        4.6927400        4.6927398        4.6927398        4.6927398       -2.8577195        4.1009610
  2153.3600        4.4447519        4.4447518        4.4447518        4.4447518       -2.4906090        2.1977597
  2153.4600        4.1946182        4.1946181        4.1946181        4.1946181       -2.4181675        2.0165639
  2153.5600        3.9611184        3.9611183        3.9611183        3.9611183       -2.0872962        3.5695393
  2153.6600        3.7771589        3.7771588        3.7771588        3.7771588       -1.7042597        2.7186747
  2153.7600        3.6202664        3.6202663        3.6202663        3.6202663       -1.5435613        2.2517682
  2153.8600        3.4684467        3.4684466        3.4684466        3.4684466       -1.2539060        3.2537830
  2153.9600        3.3694852        3.3694851        3.3694787        3.3694787      -0.89280470        2.3863287
  2154.0600        3.2898857        1.5132963        3.2898954        1.5133061      -0.77664029       0.70413840
  2154.1600        3.2141572        1.5237409        3.2141830        1.5237669      -0.75197702        1.0206320
  2154.2600        3.1394903        1.5340157        3.1395324        1.5340578      -0.57251389        1.6637574
  2154.3600        3.0996544        1.5441215        3.0997127        1.5441799      -0.41922554       0.55354126
  2154.4600        3.0556452        1.5540594        3.0557197        1.5541340      -0.46180564       0.30819880
  2154.5600        3.0072933        1.5638304        3.0073839        1.5639211      -0.35758578        1.3365727
  2154.6600        2.9841281        1.5734353        2.9842349        1.5735422      -0.19449111       0.54285015
  2154.7600        2.9683950        1.5828751        2.9685181        1.5829982      -0.24901575      -0.80275464
  2154.8600        2.9343249        1.5921508        2.9344642        1.5922901      -0.35504204      -0.75999021
  2154.9600        2.8973866        1.6012633        2.8975421        1.6014188      -0.40101379      -0.10138118
  2155.0600        2.8541221        1.6102135        2.8542939        1.6103853      -0.37531827       0.49197523
  2155.1600        2.8223230        1.6190025        2.8225109        1.6191905      -0.30261875      -0.83685558E-01
  2155.2600        2.7935984        1.6276312        2.7938025        1.6278354      -0.39205538      -0.91630156
  2155.3600        2.7439119        1.6361005        2.7441322        1.6363209      -0.48587906      -0.84680937
  2155.4600        2.6964226        1.6444114        2.6966591        1.6446480      -0.56141726      -0.37529471
  2155.5600        2.6316284        1.6525648        2.6318812        1.6528176      -0.56093800       0.23612599
  2155.6600        2.5842350        1.6605618        2.5845039        1.6608308      -0.51419206      -0.21142585
  2155.7600        2.5287900        1.6684031        2.5290752        1.6686883      -0.60322317      -0.68165021
  2155.8600        2.4635904        1.6760899        2.4638917        1.6763913      -0.65052210       0.21566543
  2155.9600        2.3986856        1.6836229        2.3990031        1.6839405      -0.56009009       0.69823986
  2156.0600        2.3515723        1.6910033        2.3519061        1.6913371      -0.51087413       0.68939204E-01
  2156.1600        2.2965108        1.6982320        2.2968607        1.6985820      -0.54630225      -0.36626256
  2156.2600        2.2423119        1.7053098        2.2426780        1.7056760      -0.58412664      -0.36423494
  2156.3600        2.1796855        1.7122378        2.1800678        1.7126202      -0.61914923       0.55335693
  2156.4600        2.1184820        1.7190169        2.1188806        1.7194155      -0.47345526       0.86690128
  2156.5600        2.0849944        1.7256480        2.0854092        1.7260628      -0.44576898       0.36331329
  2156.6600        2.0293282        1.7321322        2.0297592        1.7325632      -0.40079260       0.60681246
  2156.7600        2.0048359        1.7384703        2.0052831        1.7389175      -0.32440649       0.23225507E-01
  2156.8600        1.9644469        1.7446633        1.9649103        1.7451267      -0.39614750       0.25160966
  2156.9600        1.9256064        1.7507122        1.9260860        1.7511918      -0.27408455       0.73031318
  2157.0600        1.9096300        1.7566179        1.9101258        1.7571137      -0.25008486       0.37603202
  2157.1600        1.8755894        1.7623814        1.8761014        1.7628934      -0.19887815       0.63888578
  2157.2600        1.8698544        1.7680036        1.8703826        1.7685318      -0.12230771      -0.11225662
  2157.3600        1.8511279        1.7734855        1.8516723        1.7740299      -0.22132947       0.43907269
  2157.4600        1.8255885        1.7788280        1.8261491        1.7793886      -0.34493169E-01   0.85805347
  2157.5600        1.8442292        1.7840320        1.8448060        1.7846089      -0.49718779E-01   -1.1616440
  2157.6600        1.8156448        1.7890987        1.8162378        1.7896917      -0.26682197      -0.89252307
  2157.7600        1.7908648        1.7940288        1.7914741        1.7946380      -0.22822339       0.20663328
  2157.8600        1.7700001        1.7988233        1.7706255        1.7994487      -0.22549532       0.46451015E-01
  2157.9600        1.7457658        1.8034832        1.7464074        1.8041249      -0.21893319      -0.14893817
  2158.0600        1.7262134        1.8080095        1.7268713        1.8086673      -0.25528295      -0.63003797
  2158.1600        1.6947092        1.8124030        1.6953832        1.8130771      -0.34494078      -0.24018124
  2158.2600        1.6572253        1.8166648        1.6579155        1.8173551      -0.30331920       0.24607978
  2158.3600        1.6340453        1.8207958        1.6347518        1.8215023      -0.29572483      -0.28368298
  2158.4600        1.5980803        1.8247969        1.5988030        1.8255196      -0.36005580      -0.20866091
  2158.5600        1.5620342        1.8286692        1.5627730        1.8294081      -0.33745701       0.11022900
  2158.6600        1.5305889        1.8324135        1.5313440        1.8331686      -0.33801000      -0.40552473E-01
  2158.7600        1.4944322        1.8360308        1.4952034        1.8368021      -0.34556750      -0.81289276E-01
  2158.8600        1.4614754        1.8395220        1.4622629        1.8403095      -0.35426785       0.70045181E-01
  2158.9600        1.4235786        1.8428882        1.4243823        1.8436919      -0.33155847       0.36202299
  2159.0600        1.3951637        1.8461302        1.3959836        1.8469501      -0.28186326       0.47796620
  2159.1600        1.3672060        1.8492491        1.3680420        1.8500852      -0.23596523       0.32773772
  2159.2600        1.3479707        1.8522457        1.3488229        1.8530980      -0.21631571      -0.16313154
  2159.3600        1.3239428        1.8551210        1.3248113        1.8559895      -0.26859154       0.23778496
  2159.4600        1.2942524        1.8578760        1.2951370        1.8587607      -0.16875872       0.85289224
  2159.5600        1.2901911        1.8605117        1.2910920        1.8614126      -0.98013088E-01   0.14432994
  2159.6600        1.2746497        1.8630289        1.2755668        1.8639460      -0.13989273      -0.20792359
  2159.7600        1.2622125        1.8654286        1.2631458        1.8663619      -0.13959781       0.41750614
  2159.8600        1.2467302        1.8677118        1.2476797        1.8686613      -0.56391504E-01   0.99371992
  2159.9600        1.2509342        1.8698794        1.2518999        1.8708452       0.59146178E-01   0.52902545
  2160.0600        1.2585594        1.8719324        1.2595413        1.8729144       0.49413585E-01  -0.38340520
  2160.1600        1.2608169        1.8738718        1.2618150        1.8748699      -0.17534862E-01  -0.71335487E-01
  2160.2600        1.2550525        1.8756985        1.2560668        1.8767128       0.35146487E-01   0.53473966
  2160.3600        1.2678462        1.8774133        1.2688768        1.8784439       0.89413070E-01   0.30512664
  2160.4600        1.2729351        1.8790174        1.2739818        1.8800642       0.96171815E-01   0.37873552E-01
  2160.9600        1.3255493        1.8854091        1.3266771        1.8865368       0.11213720       0.37959573E-01
  2161.4600        1.3850723        1.8891734        1.3862810        1.8903821       0.13413139       0.22974819E-01
  2161.9600        1.4596807        1.8904293        1.4609705        1.8917191       0.13511202      -0.21161018E-02
  2162.4600        1.5201843        1.8892960        1.5215551        1.8906668       0.13201529      -0.28526822E-01
  2162.9600        1.5916960        1.8858925        1.5931478        1.8873443       0.10658520      -0.51936658E-01
  2163.4600        1.6267695        1.8803377        1.6283023        1.8818705       0.80078628E-01   0.91279931E-02
  2163.9600        1.6717746        1.8727507        1.6733884        1.8743645       0.11571319       0.91279931E-01
  2164.4600        1.7424827        1.8632505        1.7441775        1.8649454       0.17135856       0.70384347E-01
  2164.9600        1.8431332        1.8519562        1.8449090        1.8537321       0.18609754      -0.35848386E-01
  2165.4600        1.9285802        1.8389867        1.9304371        1.8408436       0.13551017      -0.10928523
  2165.9600        1.9786434        1.8244612        1.9805812        1.8263991       0.76812310E-01  -0.10519312
  2166.4600        2.0053925        1.8084986        2.0074114        1.8105175       0.30317056E-01  -0.54989154E-01
  2166.9600        2.0089604        1.7912179        2.0110603        1.7933179       0.21823157E-01   0.52202093E-02
  2167.4600        2.0272157        1.7727382        2.0293966        1.7749192       0.35537266E-01  -0.20792359E-01
  2167.9600        2.0444977        1.7531786        2.0467596        1.7554405       0.10307976E-02  -0.55085005E-01
  2168.4600        2.0282465        1.7326579        2.0305894        1.7350009      -0.19547739E-01  -0.31771019E-01
  2168.9600        2.0249499        1.7112954        2.0273739        1.7137194      -0.30740222E-01  -0.39800409E-01
  2169.4600        1.9975063        1.6892099        2.0000112        1.6917149      -0.59348148E-01  -0.42616963E-01
  2169.9600        1.9656018        1.6665206        1.9681878        1.6691066      -0.73357185E-01  -0.11037646E-01
  2170.4600        1.9241491        1.6433464        1.9268161        1.6460134      -0.70385794E-01  -0.40110083E-02
  2170.9600        1.8952160        1.6198063        1.8979640        1.6225544      -0.77368193E-01  -0.25164653E-01
  2171.4600        1.8467809        1.5960195        1.8496099        1.5988486      -0.95550447E-01  -0.26912096E-01
  2171.9600        1.7996656        1.5721049        1.8025756        1.5750150      -0.10428029      -0.84938998E-02
  2172.4600        1.7425006        1.5481816        1.7454917        1.5511727      -0.10404435       0.24331484E-02
  2172.9600        1.6956212        1.5243685        1.6986933        1.5274406      -0.10184714      -0.87298415E-02
  2173.4600        1.6406535        1.5007847        1.6438066        1.5039379      -0.11277419      -0.50874921E-03
  2173.9600        1.5828470        1.4775493        1.5860811        1.4807835      -0.10235589       0.17437563E-01
  2174.4600        1.5382976        1.4547813        1.5416127        1.4580964      -0.95336625E-01  -0.72404598E-02
  2174.9600        1.4875104        1.4325719        1.4909066        1.4359681      -0.10959635      -0.95556373E-02
  2175.4600        1.4287012        1.4109302        1.4321784        1.4144074      -0.10489226       0.77197163E-02
  2175.9600        1.3826181        1.3898498        1.3861763        1.3934080      -0.10187663       0.69086668E-02
  2176.4600        1.3268246        1.3693244        1.3304638        1.3729636      -0.97983596E-01   0.23940706E-01
  2176.9600        1.2846345        1.3493476        1.2883548        1.3530679      -0.77935927E-01   0.28158163E-01
  2177.4600        1.2488887        1.3299132        1.2526899        1.3337145      -0.69825433E-01   0.13360197E-01
  2177.9600        1.2148091        1.3110148        1.2186914        1.3148971      -0.64575731E-01   0.14503039E-01
  2178.4600        1.1843129        1.2926460        1.1882762        1.2966093      -0.55322394E-01   0.16773978E-01
  2178.9600        1.1594867        1.2748005        1.1635310        1.2788449      -0.47801753E-01   0.21234750E-02
  2179.4600        1.1365112        1.2574720        1.1406365        1.2615974      -0.53198919E-01   0.11760217E-01
  2179.9600        1.1062878        1.2406542        1.1104941        1.2448606      -0.36041536E-01   0.37699054E-01
  2180.4600        1.1004696        1.2243407        1.1047570        1.2286280      -0.15499865E-01   0.15380447E-01
  2180.9600        1.0907879        1.2085251        1.0951563        1.2128935      -0.20661089E-01   0.16220989E-03
  2181.4600        1.0798085        1.1932012        1.0842579        1.1976506      -0.15337655E-01   0.10580509E-01
  2181.9600        1.0754503        1.1783626        1.0799807        1.1828930      -0.10080580E-01   0.37234544E-02
  2182.4600        1.0697280        1.1640030        1.0743394        1.1686144      -0.11614201E-01   0.36423494E-02
  2182.9600        1.0638361        1.1501160        1.0685285        1.1548085      -0.64382306E-02   0.76828504E-02
  2183.4600        1.0632897        1.1366953        1.0680632        1.1414688      -0.39313504E-02  -0.19907578E-02
  2183.9600        1.0599047        1.1237346        1.0647592        1.1285891      -0.84289884E-02  -0.39962619E-02
  2184.4600        1.0548607        1.1112276        1.0597962        1.1161630      -0.79276123E-02   0.72699525E-02
  2184.9600        1.0519771        1.0991678        1.0569936        1.1041843      -0.11590359E-02   0.11797083E-02
  2185.4600        1.0537017        1.0875490        1.0587992        1.0926465      -0.67479040E-02  -0.14930683E-01
  2185.9600        1.0452292        1.0763648        1.0504077        1.0815434      -0.16089719E-01  -0.52939410E-02
  2186.4600        1.0376120        1.0656089        1.0428715        1.0708685      -0.12041845E-01   0.90100222E-02
  2186.9600        1.0331874        1.0552750        1.0385279        1.0606156      -0.70796970E-02   0.60460051E-03
  2187.4600        1.0305323        1.0453568        1.0359539        1.0507783      -0.11437245E-01  -0.15446806E-01
  2187.9600        1.0217501        1.0358478        1.0272527        1.0413504      -0.22526503E-01  -0.89289173E-02
  2188.4600        1.0080058        1.0267417        1.0135894        1.0323254      -0.20366162E-01   0.45345038E-02
  2188.9600        1.0013840        1.0180323        1.0070486        1.0236970      -0.17991999E-01   0.11310453E-01
  2189.4600       0.99001379        1.0097132       0.99575941        1.0154589      -0.90557084E-02   0.26049434E-01
  2189.9600       0.99232825        1.0017781       0.99815488        1.0076047       0.80574353E-02  -0.10396179E-02
  2190.4600       0.99807123       0.99422054        1.0039789        1.0001282      -0.10095326E-01  -0.35479727E-01
  2190.9600       0.98223292       0.98703429       0.98822159       0.99302299      -0.27422292E-01   0.35907372E-02
  2191.4600       0.97064893       0.98021300       0.97671862       0.98628271      -0.65045892E-02   0.25577551E-01
  2191.9600       0.97572833       0.97375032       0.98187903       0.97990105      -0.18447414E-02   0.15483672E-02
  2192.4600       0.96880419       0.96763993       0.97503591       0.97387167      -0.49562220E-02  -0.13640377E-02
  2192.9600       0.97077211       0.96187548       0.97708484       0.96818824      -0.32087791E-02  -0.65473811E-02
  2193.4600       0.96559541       0.95645065       0.97198916       0.96284442      -0.11503603E-01   0.44755184E-02
  2193.9600       0.95926850       0.95135910       0.96574327       0.95783389       0.12667393E-02   0.12984165E-01
  2194.4600       0.96686215       0.94659449       0.97341793       0.95315029       0.14805614E-02  -0.53824192E-02
  2194.9600       0.96074907       0.94215049       0.96738586       0.94878731      -0.41156799E-02  -0.22119531E-02
  2195.4600       0.96274647       0.93802077       0.96946428       0.94473861      -0.73139164E-03   0.50285067E-02
  2195.9600       0.96001767       0.93419899       0.96681650       0.94099784       0.91282682E-03  -0.16810843E-02
  2196.4600       0.96365930       0.93067882       0.97053914       0.93755868      -0.24124760E-02  -0.82800777E-02
  2196.9600       0.95760520       0.92745392       0.96456605       0.93441480      -0.73672509E-02   0.30967343E-03
  2197.4600       0.95629205       0.92451795       0.96333392       0.93155985      -0.21028026E-02  -0.22340726E-02
  2197.9600       0.95550240       0.92186459       0.96262528       0.92898750      -0.96013235E-02  -0.79335384E-02
  2198.4600       0.94669073       0.91948750       0.95389463       0.92669143      -0.10036341E-01  -0.20644895E-03
  2198.9600       0.94546605       0.91738034       0.95275097       0.92466528      -0.98077725E-02   0.40552473E-03
  2199.4600       0.93688295       0.91553678       0.94424889       0.92290274      -0.96308162E-02   0.60607514E-02
  2199.9600       0.93583524       0.91395048       0.94328219       0.92139746      -0.37470210E-02  -0.72257134E-03
  2200.4600       0.93313593       0.91261512       0.94066390       0.92014311      -0.10353388E-01  -0.58715066E-02
  2201.4600       0.92030516       0.91067184       0.92799515       0.91836186      -0.12554281E-01   0.11483723E-02
  2202.4600       0.90802737       0.90965627       0.91587940       0.91750832      -0.80566429E-02   0.26654035E-02
  2203.4600       0.90419187       0.90951772       0.91220593       0.91753180      -0.72234739E-02   0.33179296E-03
  2204.4600       0.89358042       0.91020553       0.90175651       0.91838164      -0.73930570E-02   0.58137500E-02
  2205.4600       0.88940576       0.91166901       0.89774388       0.92000716       0.44040261E-02   0.39409631E-02
  2206.4600       0.90238847       0.91385749       0.91088863       0.92235767       0.48886914E-03  -0.45381904E-02
  2207.4600       0.89038350       0.91672030       0.89904568       0.92538251      -0.46723547E-02   0.13511347E-02
  2208.4600       0.89304377       0.92020675       0.90186798       0.92903099       0.31911385E-02   0.46008624E-02
  2209.4600       0.89676577       0.92426617       0.90575202       0.93325244       0.45293701E-02   0.69860852E-03
  2210.4600       0.90210251       0.92884789       0.91125078       0.93799619       0.45883555E-02   0.41750614E-02
  2211.4600       0.90594248       0.93390122       0.91525279       0.94321155       0.12879493E-01   0.56404804E-02
  2212.4600       0.92786149       0.93937549       0.93733383       0.94884785       0.15869316E-01  -0.24128722E-02
  2213.4600       0.93768112       0.94522002       0.94731549       0.95485441       0.80537487E-02  -0.23078044E-02
  2214.4600       0.94396899       0.95138414       0.95376539       0.96118057       0.11253707E-01   0.41216059E-02
  2215.4600       0.96018853       0.95781717       0.97014696       0.96777563       0.16296961E-01   0.11004467E-02
  2216.4600       0.97656291       0.96446844       0.98668337       0.97458893       0.13454601E-01  -0.15280909E-02
  2217.4600       0.98709773       0.97128726       0.99738023       0.98156978       0.13240779E-01  -0.13013657E-02
  2218.4600        1.0030445       0.97822296        1.0134890       0.98866751       0.10851869E-01  -0.67095910E-03
  2219.4600        1.0088015       0.98522487        1.0194080       0.99583145       0.11898860E-01   0.82026593E-03
  2220.4600        1.0268422       0.99224231        1.0376108        1.0030109       0.12492401E-01  -0.35741475E-02
  2221.4600        1.0337863       0.99922460        1.0447169        1.0101552       0.47505654E-02  -0.51280446E-02
  2222.4600        1.0363433        1.0061211        1.0474360        1.0172137       0.22363121E-02  -0.10174984E-02
  2223.4600        1.0382589        1.0128810        1.0495136        1.0241357       0.27155686E-02   0.57695110E-03
  2224.4600        1.0417745        1.0194538        1.0531912        1.0308705       0.33902143E-02   0.49768944E-04
  2225.4600        1.0450393        1.0257887        1.0566181        1.0373675       0.28151065E-02  -0.10727972E-02
  2226.4600        1.0474047        1.0318351        1.0591454        1.0435759       0.12446198E-02  -0.27354486E-02
  2227.4600        1.0475286        1.0375423        1.0594314        1.0494451      -0.26557908E-02  -0.17290100E-02
  2228.4600        1.0420931        1.0428596        1.0541579        1.0549245      -0.22134002E-02   0.13492914E-02
  2229.4600        1.0431018        1.0477364        1.0553286        1.0599632       0.42791939E-04   0.27041126E-02
  2230.4600        1.0421787        1.0521219        1.0545676        1.0645108       0.31948251E-02   0.26727766E-02
  2231.4600        1.0494914        1.0559655        1.0620423        1.0685164       0.53883452E-02  -0.56773462E-03
  2232.4600        1.0529554        1.0592165        1.0656683        1.0719294       0.20593558E-02  -0.16202556E-02
  2233.4600        1.0536101        1.0618242        1.0664851        1.0746992       0.21478340E-02  -0.77234028E-03
  2234.4600        1.0572510        1.0637380        1.0702880        1.0767750       0.51467526E-03  -0.22930580E-02
  2235.4600        1.0546395        1.0649071        1.0678385        1.0781062      -0.24382821E-02  -0.63409322E-03
  2236.4600        1.0523745        1.0652810        1.0657355        1.0786421      -0.75351117E-03   0.15151879E-02
  2237.4600        1.0531325        1.0648089        1.0666556        1.0783321       0.59209362E-03   0.58985416E-03
  2238.4600        1.0535587        1.0634402        1.0672438        1.0771253       0.42619714E-03  -0.16589648E-03
