# XDI/1.0 Athena/0.9.26
# Element.edge:                  K
# Element.symbol:                P
# Column.1:                      energy eV
# Column.2:                      norm
# Column.3:                      nbkg
# Column.4:                      flat
# Column.5:                      fbkg
# Column.6:                      nder
# Column.7:                      nsec
# Athena.e0:                     2154
# Athena.eshift:                 0
# Athena.rbkg:                   1.0
# Athena.importance:             1
# Athena.standard:               None
# Athena.bkg_kweight:            2
# Athena.edge_step:              0.0100060
# Athena.fixed_step:             no
# Athena.pre_edge_range:         -27.4 -10
# Athena.pre_edge_line:          0.102339 - 4.66826e-005 * E
# Athena.normalization_range:    28 48.6
# Athena.post_edge_polynomial:   0.038635 - 1.24626e-005 * E + 0 * E^2 + 0 * E^3
# Athena.spline_range_energy:    0.000 85.601
# Athena.clamps:                 0 24
# Athena.spline_range_k:         0.000 4.740
# Athena.kweight:                2
# Athena.window:                 hanning
# Athena.phase_correction:       no
# Athena.k_range:                2.740 3.000
# Athena.dk:                     1
# Athena.r_range:                1 3
# Athena.dr:                     0.0
# Athena.window:                 hanning
# Athena.plot_multiplier:        1
# Athena.y_offset:               0
# ///
#------------------------
#   e         norm        nbkg        flat        fbkg        nder        nsec
  2107.6000       0.18959727       0.18959756       0.18959756       0.18959756      -0.17911961E-01   0.16642801E-02
  2109.6000       0.15377335       0.15377359       0.15377359       0.15377359      -0.14583401E-01   0.12323262E-02
  2111.6000       0.13126367       0.13126387       0.13126387       0.13126387      -0.12982657E-01   0.62526450E-03
  2113.6000       0.10184272       0.10184288       0.10184288       0.10184288      -0.12082343E-01   0.63088674E-03
  2115.6000       0.82934295E-01   0.82934421E-01   0.82934422E-01   0.82934421E-01  -0.10459110E-01   0.11147513E-02
  2117.6000       0.60006284E-01   0.60006376E-01   0.60006377E-01   0.60006376E-01  -0.76233380E-02   0.15404115E-02
  2119.6000       0.52440943E-01   0.52441022E-01   0.52441023E-01   0.52441022E-01  -0.42974636E-02   0.78305521E-03
  2121.6000       0.42816430E-01   0.42816495E-01   0.42816496E-01   0.42816495E-01  -0.44911172E-02   0.17487356E-03
  2123.6000       0.34476474E-01   0.34476526E-01   0.34476527E-01   0.34476526E-01  -0.35979694E-02  -0.32997401E-03
  2125.6000       0.28424552E-01   0.28424595E-01   0.28424596E-01   0.28424595E-01  -0.58110132E-02  -0.29751853E-03
  2127.6000       0.11232421E-01   0.11232438E-01   0.11232439E-01   0.11232438E-01  -0.47880435E-02   0.46599656E-03
  2129.6000       0.92723778E-02   0.92723911E-02   0.92723921E-02   0.92723911E-02  -0.39470269E-02   0.58305552E-03
  2131.6000      -0.45556865E-02  -0.45556946E-02  -0.45556935E-02  -0.45556946E-02  -0.24558215E-02   0.89733459E-03
  2133.6000      -0.55090808E-03  -0.55090997E-03  -0.55090892E-03  -0.55090997E-03  -0.35768859E-03   0.36344825E-03
  2135.6000      -0.59864409E-02  -0.59864512E-02  -0.59864501E-02  -0.59864512E-02  -0.10020285E-02   0.94042804E-04
  2137.6000      -0.45590220E-02  -0.45590301E-02  -0.45590291E-02  -0.45590301E-02   0.18482626E-04  -0.36077086E-03
  2139.6000      -0.59125104E-02  -0.59125205E-02  -0.59125195E-02  -0.59125205E-02  -0.24451119E-02  -0.93234443E-02
  2139.7500      -0.98160127E-02  -0.98160289E-02  -0.98160278E-02  -0.98160289E-02  -0.20026923E-01   0.52151450E-01
  2139.9000      -0.11920587E-01  -0.11920607E-01  -0.11920606E-01  -0.11920607E-01   0.13200323E-01   0.13928843
  2140.0500      -0.58559157E-02  -0.58559258E-02  -0.58559248E-02  -0.58559258E-02   0.21759608E-01   0.16330954E-01
  2140.2000      -0.53927048E-02  -0.53927142E-02  -0.53927131E-02  -0.53927142E-02   0.18099609E-01  -0.82650171E-01
  2140.3500      -0.42603292E-03  -0.42603462E-03  -0.42603357E-03  -0.42603462E-03  -0.30354436E-02  -0.69239905E-01
  2140.5000      -0.63033379E-02  -0.63033487E-02  -0.63033476E-02  -0.63033487E-02  -0.26723620E-02  -0.13497547E-01
  2140.6500      -0.12277415E-02  -0.12277445E-02  -0.12277434E-02  -0.12277445E-02  -0.70847078E-02  -0.25067143E-02
  2140.8000      -0.84287503E-02  -0.84287643E-02  -0.84287633E-02  -0.84287643E-02  -0.34243763E-02   0.76965813E-01
  2140.9500      -0.22550544E-02  -0.22550590E-02  -0.22550579E-02  -0.22550590E-02   0.16005036E-01   0.64672985E-01
  2141.1000      -0.36272394E-02  -0.36272461E-02  -0.36272450E-02  -0.36272461E-02   0.15977519E-01   0.10520338E-02
  2141.2500       0.25382013E-02   0.25382042E-02   0.25382053E-02   0.25382042E-02   0.16320646E-01  -0.69898620E-01
  2141.4000       0.12689544E-02   0.12689553E-02   0.12689564E-02   0.12689553E-02  -0.49920666E-02  -0.96120735E-01
  2141.5500       0.10405813E-02   0.10405819E-02   0.10405829E-02   0.10405819E-02  -0.12515574E-01   0.18932167E-01
  2141.7000      -0.24857179E-02  -0.24857228E-02  -0.24857217E-02  -0.24857228E-02   0.68758347E-03   0.51400414E-01
  2141.8500       0.12468564E-02   0.12468573E-02   0.12468583E-02   0.12468573E-02   0.29045499E-02   0.86433118E-01
  2142.0000      -0.16143529E-02  -0.16143565E-02  -0.16143554E-02  -0.16143565E-02   0.26617519E-01   0.79906377E-02
  2142.1500       0.92321120E-02   0.92321252E-02   0.92321263E-02   0.92321252E-02   0.53017412E-02  -0.14096509
  2142.3000      -0.23830558E-04  -0.23831646E-04  -0.23830595E-04  -0.23831646E-04  -0.15672009E-01  -0.31450526E-01
  2142.4500       0.45305094E-02   0.45305153E-02   0.45305164E-02   0.45305153E-02  -0.41334165E-02   0.59579827E-01
  2142.6000      -0.12638555E-02  -0.12638585E-02  -0.12638575E-02  -0.12638585E-02   0.22019392E-02   0.44749082E-01
  2142.7500       0.51910911E-02   0.51910981E-02   0.51910991E-02   0.51910981E-02   0.92913080E-02  -0.55481514E-01
  2142.9000       0.15235369E-02   0.15235382E-02   0.15235392E-02   0.15235382E-02  -0.14442515E-01  -0.19380120E-01
  2143.0500       0.85833659E-03   0.85833686E-03   0.85833791E-03   0.85833686E-03   0.34772720E-02   0.14913729
  2143.2000       0.25667185E-02   0.25667214E-02   0.25667224E-02   0.25667214E-02   0.30298671E-01   0.10592617
  2143.3500       0.99479379E-02   0.99479522E-02   0.99479533E-02   0.99479522E-02   0.35255123E-01  -0.10784824
  2143.5000       0.13143255E-01   0.13143275E-01   0.13143276E-01   0.13143275E-01  -0.20557996E-02  -0.25449513
  2143.6500       0.93311980E-02   0.93312114E-02   0.93312124E-02   0.93312114E-02  -0.41093417E-01  -0.11386750
  2143.8000       0.81523033E-03   0.81523053E-03   0.81523158E-03   0.81523053E-03  -0.36216051E-01   0.19224824
  2143.9500      -0.15336172E-02  -0.15336206E-02  -0.15336195E-02  -0.15336206E-02   0.16581056E-01   0.31559627
  2144.1000       0.57895472E-02   0.57895551E-02   0.57895561E-02   0.57895551E-02   0.58462829E-01   0.63327683E-01
  2144.2500       0.16005232E-01   0.16005255E-01   0.16005256E-01   0.16005255E-01   0.35579361E-01  -0.20104029
  2144.4000       0.16463356E-01   0.16463380E-01   0.16463381E-01   0.16463380E-01  -0.18492572E-02  -0.19707589
  2144.5500       0.15450454E-01   0.15450477E-01   0.15450478E-01   0.15450477E-01  -0.23543407E-01   0.16781683E-01
  2144.7000       0.94003334E-02   0.94003468E-02   0.94003479E-02   0.94003468E-02   0.31852477E-02   0.18778426
  2144.8500       0.16406029E-01   0.16406053E-01   0.16406054E-01   0.16406053E-01   0.32791871E-01   0.73275366E-01
  2145.0000       0.19237895E-01   0.19237923E-01   0.19237924E-01   0.19237923E-01   0.25167858E-01   0.17527456E-01
  2145.1500       0.23956386E-01   0.23956422E-01   0.23956423E-01   0.23956422E-01   0.38050108E-01   0.32752409E-01
  2145.3000       0.30652927E-01   0.30652974E-01   0.30652975E-01   0.30652974E-01   0.34993580E-01  -0.12537902E-01
  2145.4500       0.34454460E-01   0.34454512E-01   0.34454513E-01   0.34454512E-01   0.34288738E-01  -0.10210602
  2145.6000       0.40939549E-01   0.40939611E-01   0.40939612E-01   0.40939611E-01   0.43617733E-02  -0.18748622
  2145.7500       0.35762992E-01   0.35763046E-01   0.35763047E-01   0.35763046E-01  -0.21957128E-01  -0.74935590E-01
  2145.9000       0.34352410E-01   0.34352462E-01   0.34352463E-01   0.34352462E-01  -0.18118904E-01   0.92813613E-01
  2146.0500       0.30327321E-01   0.30327367E-01   0.30327368E-01   0.30327367E-01   0.58869558E-02   0.14990527
  2146.2000       0.36118497E-01   0.36118552E-01   0.36118553E-01   0.36118552E-01   0.26852677E-01   0.39305911E-01
  2146.3500       0.38383124E-01   0.38383182E-01   0.38383183E-01   0.38383182E-01   0.17678729E-01  -0.13057801
  2146.5000       0.41422116E-01   0.41422178E-01   0.41422180E-01   0.41422178E-01  -0.12320725E-01  -0.80140681E-01
  2146.6500       0.34686907E-01   0.34686959E-01   0.34686960E-01   0.34686959E-01  -0.63634750E-02   0.19445625
  2146.8000       0.39513073E-01   0.39513133E-01   0.39513134E-01   0.39513133E-01   0.46016150E-01   0.27568050
  2146.9500       0.48491752E-01   0.48491825E-01   0.48491826E-01   0.48491825E-01   0.76340675E-01   0.23142745E-02
  2147.1000       0.62415276E-01   0.62415371E-01   0.62415372E-01   0.62415371E-01   0.46710432E-01  -0.21516401
  2147.2500       0.62504881E-01   0.62504977E-01   0.62504978E-01   0.62504977E-01   0.11791471E-01  -0.51766971E-01
  2147.4000       0.65952717E-01   0.65952817E-01   0.65952819E-01   0.65952817E-01   0.31180341E-01   0.97750310E-01
  2147.5500       0.71858983E-01   0.71859093E-01   0.71859094E-01   0.71859093E-01   0.41116564E-01   0.23242463E-01
  2147.7000       0.78287686E-01   0.78287806E-01   0.78287807E-01   0.78287806E-01   0.38153080E-01  -0.64610134E-01
  2147.8500       0.83304907E-01   0.83305035E-01   0.83305036E-01   0.83305035E-01   0.21733523E-01   0.39388417E-01
  2148.0000       0.84807743E-01   0.84807873E-01   0.84807874E-01   0.84807873E-01   0.49969605E-01   0.20771860
  2148.1500       0.98295789E-01   0.98295939E-01   0.98295940E-01   0.98295939E-01   0.84049105E-01   0.15590244
  2148.3000       0.11002247       0.11002264       0.11002264       0.11002264       0.96740337E-01  -0.62389137E-02
  2148.4500       0.12731789       0.12731809       0.12731809       0.12731809       0.82177430E-01  -0.10018962
  2148.6000       0.13467570       0.13467591       0.13467591       0.13467591       0.66683451E-01  -0.28819664E-01
  2148.7500       0.14732293       0.14732315       0.14732315       0.14732315       0.73531531E-01   0.11577658
  2148.9000       0.15673516       0.15673540       0.15673540       0.15673540       0.10141642       0.27255738
  2149.0500       0.17774785       0.17774813       0.17774813       0.17774813       0.15529874       0.20658584
  2149.2000       0.20332479       0.20332510       0.20332510       0.20332510       0.16339218       0.54253475E-01
  2149.3500       0.22676551       0.22676585       0.22676585       0.22676585       0.17157479       0.14064884
  2149.5000       0.25479722       0.25479761       0.25479762       0.25479761       0.20558683       0.35563973
  2149.6500       0.28844155       0.28844200       0.28844200       0.28844200       0.27826671       0.58895683
  2149.8000       0.33827723       0.33827776       0.33827776       0.33827776       0.38227388       0.57126469
  2149.9500       0.40312372       0.40312434       0.40312434       0.40312434       0.44964612       0.79661514
  2150.1000       0.47317107       0.47317180       0.47317180       0.47317180       0.62125842        1.5721246
  2150.2500       0.58950124       0.58950215       0.58950215       0.58950215       0.92128351        2.0445574
  2150.4000       0.74955612       0.74955728       0.74955728       0.74955728        1.2346256        2.2823845
  2150.5500       0.95988894       0.95989042       0.95989042       0.95989042        1.6059989        2.3011144
  2150.7000        1.2313558        1.2313577        1.2313577        1.2313577        1.9249600        1.9961803
  2150.8500        1.5373769        1.5373793        1.5373793        1.5373793        2.2048529        1.4191197
  2151.0000        1.8928117        1.8928146        1.8928146        1.8928146        2.3506959        1.4127435
  2151.1500        2.2425857        2.2425892        2.2425892        2.2425892        2.6286760        3.2722172
  2151.3000        2.6814145        2.6814186        2.6814186        2.6814186        3.3323610        5.0642314
  2151.4500        3.2422940        3.2422990        3.2422990        3.2422990        4.1479454        4.0172124
  2151.6000        3.9257981        3.9258041        3.9258041        3.9258041        4.5375247      -0.18936831
  2151.7500        4.6035514        4.6035585        4.6035585        4.6035585        4.0911349       -5.4920296
  2151.9000        5.1531386        5.1531465        5.1531465        5.1531465        2.8899159       -8.7195226
  2152.0500        5.4705262        5.4705346        5.4705346        5.4705346        1.4752782       -8.4509531
  2152.2000        5.5957220        5.5957306        5.5957306        5.5957306       0.35462994       -6.4216837
  2152.3500        5.5769152        5.5769238        5.5769238        5.5769238      -0.45122697       -4.2756958
  2152.5000        5.4603539        5.4603623        5.4603623        5.4603623      -0.92807879       -2.8724210
  2152.6500        5.2984915        5.2984997        5.2984997        5.2984997       -1.3129533       -2.4143543
  2152.8000        5.0664679        5.0664758        5.0664758        5.0664758       -1.6523851       -2.2762874
  2152.9500        4.8027760        4.8027834        4.8027834        4.8027834       -1.9958395       -2.2460933
  2153.1000        4.4677161        4.4677230        4.4677230        4.4677230       -2.3262131       -1.4162681
  2153.2500        4.1049121        4.1049184        4.1049184        4.1049184       -2.4207199      -0.34498581
  2153.4000        3.7415001        3.7415059        3.7415059        3.7415059       -2.4297088       0.26429435
  2153.5500        3.3759994        3.3760046        3.3760046        3.3760046       -2.3414316        1.2238271
  2153.7000        3.0390706        3.0390753        3.0390753        3.0390753       -2.0625607        2.4723272
  2153.8500        2.7572312        2.7572355        2.7572355        2.7572355       -1.5997334        3.4669156
  2154.0000        2.5591506       0.69979095        2.5591530       0.69978941       -1.0224860        3.4891145
  2154.1500        2.4504854       0.92388004        2.4499747       0.92336551      -0.55299908        2.3473102
  2154.3000        2.3932509       0.97094779        2.3922271       0.96992026      -0.31829294        1.0597336
  2154.4500        2.3549975        1.0166336        2.3534607        1.0150931      -0.23507899       0.54991809
  2154.6000        2.3227272        1.0609550        2.3206773        1.0589015      -0.15331751       0.94362570
  2154.7500        2.3090023        1.1039293        2.3064393        1.1013628       0.48008718E-01    1.0573562
  2154.9000        2.3371298        1.1455741        2.3340539        1.1424946       0.16388934       0.94517588E-01
  2155.0500        2.3581691        1.1859067        2.3545802        1.1823142       0.76363994E-01  -0.82472722
  2155.2000        2.3600390        1.2249447        2.3559372        1.2208392      -0.83528823E-01  -0.90043946
  2155.3500        2.3331105        1.2627055        2.3284956        1.2580870      -0.19376784      -0.28857641
  2155.5000        2.3019087        1.2992064        2.2967807        1.2940750      -0.17010175      -0.13607592
  2155.6500        2.2820799        1.3344651        2.2764390        1.3288207      -0.23459062      -0.78355532
  2155.8000        2.2315315        1.3684989        2.2253775        1.3623415      -0.40516834      -0.92806284
  2155.9500        2.1605294        1.4013253        2.1538623        1.3946549      -0.51300947      -0.35376053
  2156.1000        2.0776286        1.4329617        2.0704484        1.4257783      -0.51129650       0.52916391
  2156.2500        2.0071405        1.4634257        1.9994471        1.4557292      -0.35426030       0.57357164
  2156.4000        1.9713505        1.4927345        1.9631442        1.4845251      -0.33922501      -0.17858702
  2156.5500        1.9053730        1.5209057        1.8966535        1.5121833      -0.40783641      -0.19125495
  2156.7000        1.8489996        1.5479568        1.8397671        1.5387214      -0.39660150       0.40038915
  2156.8500        1.7863925        1.5739052        1.7766469        1.5641568      -0.28771966       0.77797646
  2157.0000        1.7626837        1.5987683        1.7524250        1.5885069      -0.16320856       0.27356655
  2157.1500        1.7374300        1.6225635        1.7266582        1.6117891      -0.20564970      -0.49453585
  2157.3000        1.7009888        1.6453085        1.6897040        1.6340211      -0.31156931      -0.41078068
  2157.4500        1.6439592        1.6670205        1.6321613        1.6552201      -0.32888390       0.18930279
  2157.6000        1.6023236        1.6877170        1.5900127        1.6754037      -0.25477848       0.49565518
  2157.7500        1.5675256        1.7074156        1.5547017        1.6945892      -0.18018735       0.27711108
  2157.9000        1.5482674        1.7261336        1.5349305        1.7127942      -0.17164515      -0.70299934E-01
  2158.0500        1.5160321        1.7438884        1.5021821        1.7300361      -0.20127733       0.42595488E-01
  2158.2000        1.4878842        1.7606976        1.4735212        1.7463323      -0.15886650       0.40982792
  2158.3500        1.4683721        1.7765787        1.4534960        1.7617003      -0.78328951E-01   0.41343575
  2158.5000        1.4643856        1.7915489        1.4489965        1.7761576      -0.34835781E-01   0.20372856
  2158.6500        1.4579214        1.8056259        1.4420193        1.7897215      -0.17210383E-01   0.16859858E-01
  2158.8000        1.4592224        1.8188269        1.4428074        1.8024096      -0.29777824E-01   0.25439142E-01
  2158.9500        1.4489880        1.8311696        1.4320600        1.8142393      -0.95786410E-02   0.35091891
  2159.1000        1.4563488        1.8426714        1.4389078        1.8252281       0.75497849E-01   0.30935946
  2159.2500        1.4716374        1.8533496        1.4536834        1.8353933       0.83229198E-01   0.71114999E-01
  2159.4000        1.4813176        1.8632218        1.4628506        1.8447525       0.96832348E-01  -0.75102600E-01
  2159.5500        1.5006871        1.8723053        1.4817071        1.8533231       0.60698418E-01  -0.13092236
  2159.7000        1.4995271        1.8806178        1.4800342        1.8611225       0.57555642E-01   0.17006437
  2159.8500        1.5179538        1.8881765        1.4979479        1.8681682       0.11171773       0.43224110
  2160.0000        1.5330425        1.8949990        1.5125236        1.8744777       0.18722797       0.59061694
  2160.1500        1.5741222        1.9011026        1.5530904        1.8800684       0.28890281       0.35872865
  2160.3000        1.6197133        1.9065049        1.5981685        1.8849577       0.29484657      -0.29431296
  2160.4500        1.6625762        1.9112234        1.6405185        1.8891631       0.20060892      -0.59494878
  2160.6000        1.6798960        1.9152753        1.6573253        1.8927021       0.11636193      -0.51646821
  2160.7500        1.6974847        1.9186783        1.6744011        1.8955921       0.45668459E-01   0.41550561E-01
  2160.9000        1.6935965        1.9214497        1.6699999        1.8978505       0.12882710       0.43458191
  2161.0500        1.7361329        1.9236070        1.7120233        1.8994948       0.17604303       0.87409642E-01
  2161.2000        1.7464094        1.9251677        1.7217869        1.9005425       0.15504999      -0.19254196
  2161.3500        1.7826479        1.9261492        1.7575124        1.9010110       0.11828045      -0.37694992
  2161.5000        1.7818936        1.9265689        1.7562451        1.9009177       0.41965020E-01  -0.34520013
  2161.6500        1.7952374        1.9264444        1.7690759        1.9002802       0.14720409E-01  -0.23210927
  2161.8000        1.7863097        1.9257930        1.7596353        1.8991158      -0.27667760E-01   0.71716859E-01
  2161.9500        1.7869370        1.9246322        1.7597496        1.8974420       0.36235467E-01   0.29582205
  2162.1000        1.7971803        1.9229794        1.7694799        1.8952763       0.61078856E-01  -0.27736204
  2162.2500        1.8052607        1.9208522        1.7770473        1.8926361      -0.46973147E-01  -0.64589924
  2162.4000        1.7830884        1.9182679        1.7543620        1.8895388      -0.13269092      -0.27744311
  2162.5500        1.7654534        1.9152441        1.7362140        1.8860019      -0.13020608       0.13533526
  2162.7000        1.7440265        1.9117981        1.7142741        1.8820429      -0.92090340E-01   0.19491941
  2162.8500        1.7378263        1.9079474        1.7075609        1.8776792      -0.71730254E-01  -0.10673135
  2163.0000        1.7225075        1.9037094        1.6917290        1.8729283      -0.12410975      -0.20817144
  2163.1500        1.7005934        1.8991017        1.6693019        1.8678076      -0.13418169      -0.63083164E-01
  2163.3000        1.6822530        1.8941416        1.6504485        1.8623345      -0.14303469       0.10477142
  2163.4500        1.6576830        1.8888467        1.6253654        1.8565266      -0.10275026       0.20015848
  2163.6000        1.6514279        1.8832343        1.6185973        1.8504012      -0.82987149E-01   0.61748411E-01
  2163.7500        1.6327868        1.8773219        1.5994433        1.8439758      -0.84225738E-01   0.74889395E-01
  2163.9000        1.6261602        1.8711270        1.5923036        1.8372679      -0.60520331E-01   0.64139195E-02
  2164.0500        1.6146307        1.8646670        1.5802612        1.8302949      -0.82301562E-01  -0.51923210E-01
  2164.2000        1.6014697        1.8579593        1.5665871        1.8230743      -0.76097294E-01   0.17796628
  2164.3500        1.5918016        1.8510215        1.5564059        1.8156235      -0.28911678E-01   0.41851824
  2164.5000        1.5927962        1.8438710        1.5568876        1.8079599       0.49458179E-01   0.32122455
  2164.6500        1.6066390        1.8365251        1.5702174        1.8001011       0.67455686E-01  -0.14603327
  2164.8000        1.6130329        1.8290014        1.5760983        1.7920644       0.56481994E-02  -0.20601607
  2164.9500        1.6083335        1.8213174        1.5708859        1.7838673       0.56508645E-02  -0.44917425E-01
  2165.1000        1.6147282        1.8134904        1.5767676        1.7755274      -0.78270280E-02  -0.21466642
  2165.2500        1.6059854        1.8055379        1.5675118        1.7670619      -0.58749063E-01  -0.27288252
  2165.4000        1.5971034        1.7974774        1.5581169        1.7584884      -0.89691783E-01  -0.46305479E-03
  2165.5500        1.5790778        1.7893263        1.5395783        1.7498243      -0.58887979E-01   0.55594335
  2165.7000        1.5794370        1.7811021        1.5394245        1.7410871       0.77091223E-01   0.58574876
  2165.8500        1.6022052        1.7728222        1.5616797        1.7322942       0.11683665       0.93268340E-01
  2166.0000        1.6144880        1.7645041        1.5734495        1.7234631       0.10507173      -0.37271024
  2166.1500        1.6337267        1.7561652        1.5921753        1.7146112       0.50235752E-02  -0.52055686
  2166.3000        1.6159951        1.7478230        1.5739306        1.7057560      -0.51095334E-01  -0.94794088E-01
  2166.4500        1.6183981        1.7394948        1.5758206        1.6969149      -0.23414651E-01   0.18471222
  2166.6000        1.6089707        1.7311983        1.5658802        1.6881054       0.43183327E-02   0.22393862
  2166.7500        1.6196936        1.7229508        1.5760902        1.6793449       0.43766936E-01   0.17185107
  2166.9000        1.6221008        1.7147681        1.5779844        1.6706491       0.55873653E-01   0.59775154E-02
  2167.0500        1.6364557        1.7066545        1.5918263        1.6620225       0.45560191E-01  -0.15368533
  2167.2000        1.6357689        1.6986098        1.5906265        1.6534649       0.97680545E-02   0.18788698E-02
  2167.3500        1.6393861        1.6906338        1.5937307        1.6449759       0.46123852E-01   0.15800606
  2167.5000        1.6496060        1.6827263        1.6034376        1.6365553       0.57169874E-01   0.12695141
  2167.6500        1.6565371        1.6748869        1.6098557        1.6282029       0.84209275E-01  -0.57743043E-01
  2167.8000        1.6748688        1.6671154        1.6276745        1.6199185       0.39846961E-01  -0.71549182E-01
  2167.9500        1.6684912        1.6594116        1.6207839        1.6117017       0.62744520E-01   0.32344543
  2168.1000        1.6936922        1.6517752        1.6454719        1.6035523       0.13688059       0.24325145
  2168.2500        1.7095553        1.6442059        1.6608221        1.5954700       0.13571996      -0.64148079E-01
  2168.4000        1.7344081        1.6367036        1.6851619        1.5874547       0.11763617      -0.20211064
  2168.5500        1.7448462        1.6292679        1.6950870        1.5795061       0.75086762E-01  -0.97893335E-01
  2168.7000        1.7569342        1.6218987        1.7066620        1.5716238       0.88268167E-01   0.86457992E-01
  2168.8500        1.7713266        1.6145956        1.7205415        1.5638077       0.10102416       0.53707693E-01
  2169.0000        1.7872414        1.6073584        1.7359433        1.5560576       0.10438047      -0.80044072E-01
  2169.1500        1.8026408        1.6001869        1.7508297        1.5483730       0.77010938E-01  -0.15782173
  2169.3000        1.8103447        1.5930808        1.7580207        1.5407539       0.57033955E-01  -0.77879819E-01
  2169.4500        1.8197510        1.5860398        1.7669140        1.5332000       0.53646993E-01  -0.12534127
  2169.6000        1.8264388        1.5790638        1.7730888        1.5257109       0.19431575E-01  -0.11387483
  2169.7500        1.8255804        1.5721523        1.7717175        1.5182865       0.19484543E-01   0.76444016E-01
  2169.9000        1.8322842        1.5653053        1.7779082        1.5109265       0.42364780E-01   0.17099825
  2170.0500        1.8382899        1.5585225        1.7834009        1.5036307       0.70784017E-01  -0.46840712E-01
  2170.2000        1.8535194        1.5518035        1.7981174        1.4963988       0.28312566E-01  -0.45512511
  2170.3500        1.8467837        1.5451482        1.7908687        1.4892305      -0.65753516E-01  -0.31457077
  2170.5000        1.8337933        1.5385563        1.7773654        1.4821256      -0.66058666E-01   0.77371236E-01
  2170.6500        1.8269661        1.5320276        1.7700251        1.4750838      -0.42542145E-01   0.13069916
  2170.8000        1.8210307        1.5255617        1.7635767        1.4681050      -0.26848919E-01  -0.47990021E-01
  2170.9500        1.8189114        1.5191585        1.7609444        1.4611887      -0.56939152E-01   0.45222797E-01
  2171.1000        1.8039489        1.5128177        1.7454690        1.4543349      -0.13282080E-01   0.17318249
  2171.2500        1.8149268        1.5065390        1.7559338        1.4475433      -0.49844046E-02  -0.18394490
  2171.4000        1.8024536        1.5003222        1.7429476        1.4408135      -0.68465551E-01  -0.29199991
  2171.5500        1.7943871        1.4941671        1.7343681        1.4341453      -0.92584376E-01  -0.69884628E-01
  2171.7000        1.7746783        1.4880733        1.7141463        1.4275386      -0.89430940E-01   0.79452206E-01
  2171.8500        1.7675578        1.4820407        1.7065128        1.4209930      -0.68748714E-01  -0.85577410E-01
  2172.0000        1.7540537        1.4760689        1.6924957        1.4145082      -0.11510416      -0.20966943
  2172.1500        1.7330266        1.4701578        1.6709555        1.4080841      -0.13164954       0.29029204E-01
  2172.3000        1.7145588        1.4643071        1.6519748        1.4017204      -0.10639540       0.13586161
  2172.4500        1.7011079        1.4585165        1.6380109        1.3954168      -0.90891061E-01   0.11787354
  2172.6000        1.6872915        1.4527858        1.6236814        1.3891731      -0.71033340E-01   0.22220966
  2172.7500        1.6797979        1.4471147        1.6156749        1.3829891      -0.24228162E-01   0.15132453
  2172.9000        1.6800230        1.4415030        1.6153870        1.3768644      -0.25635982E-01  -0.17906895
  2173.0500        1.6721071        1.4359505        1.6069581        1.3707988      -0.77948847E-01  -0.53223428
  2173.2000        1.6566384        1.4304568        1.5909763        1.3647921      -0.18530627      -0.37162756
  2173.3500        1.6165153        1.4250217        1.5503401        1.3588441      -0.18943712       0.47526966
  2173.5000        1.5998073        1.4196450        1.5331191        1.3529544      -0.42725368E-01   0.61356536
  2173.6500        1.6036977        1.4143265        1.5364965        1.3471229      -0.53675075E-02  -0.20082475
  2173.8000        1.5981970        1.4090658        1.5304828        1.3413492      -0.10297279      -0.61828474
  2173.9500        1.5728058        1.4038627        1.5045786        1.3356331      -0.19085293      -0.12630291
  2174.1000        1.5409411        1.3987170        1.4722009        1.3299744      -0.14086367       0.45636326
  2174.2500        1.5305467        1.3936285        1.4612935        1.3243729      -0.53943953E-01   0.19040435
  2174.4000        1.5247579        1.3885967        1.4549917        1.3188281      -0.83742362E-01   0.35710741E-01
  2174.5500        1.5054240        1.3836217        1.4351447        1.3133401      -0.43230731E-01   0.21659193
  2174.7000        1.5117887        1.3787029        1.4409965        1.3079083      -0.18764782E-01  -0.10218853
  2174.8500        1.4997946        1.3738403        1.4284893        1.3025327      -0.73887290E-01  -0.40137078
  2175.0000        1.4896225        1.3690336        1.4178043        1.2972130      -0.13917602      -0.23082337
  2175.1500        1.4580418        1.3642824        1.3857105        1.2919489      -0.14313430       0.11095326
  2175.3000        1.4466822        1.3595867        1.3738379        1.2867401      -0.10589004       0.50602894E-02
  2175.4500        1.4262748        1.3549460        1.3529174        1.2815865      -0.14161621       0.70990259E-01
  2175.6000        1.4041974        1.3503602        1.3303270        1.2764877      -0.84592961E-01   0.84622207E-01
  2176.3500        1.3501411        1.3282453        1.2737057        1.2518078      -0.65456228E-01   0.13683176E-01
  2177.1000        1.3060130        1.3074642        1.2270126        1.2284618      -0.64068196E-01   0.10972289E-01
  2177.8500        1.2540388        1.2879856        1.1724733        1.2064182      -0.48997795E-01   0.16301705E-01
  2178.6000        1.2325163        1.2697780        1.1483858        1.1856456      -0.39615639E-01   0.55625650E-02
  2179.3500        1.1946153        1.2528100        1.1079198        1.1661127      -0.40653948E-01  -0.51972736E-02
  2180.1000        1.1715354        1.2370503        1.0822749        1.1477880      -0.47411550E-01  -0.10590074E-02
  2180.8500        1.1234980        1.2224675        1.0316724        1.1306402      -0.42242459E-01   0.18857901E-01
  2181.6000        1.1081717        1.2090301        1.0137812        1.1146379      -0.19124699E-01   0.26975995E-01
  2182.3500        1.0948110        1.1967069       0.99785543        1.0997497      -0.17784664E-02   0.20441037E-01
  2183.1000        1.1055040        1.1854663        1.0059835        1.0859441       0.11536857E-01   0.10824644E-01
  2183.8500        1.1121162        1.1752771        1.0100308        1.0731899       0.14458500E-01   0.14758233E-02
  2184.6000        1.1271918        1.1661077        1.0225414        1.0614556       0.13750592E-01  -0.10036985E-01
  2185.3500        1.1327421        1.1579269        1.0255268        1.0507098      -0.59697715E-03  -0.18993819E-01
  2186.1000        1.1262963        1.1507033        1.0165160        1.0409212      -0.14740136E-01  -0.65108390E-02
  2186.8500        1.1106319        1.1444054       0.99828663        1.0320583      -0.10363236E-01   0.13463812E-01
  2187.6000        1.1107515        1.1390018       0.99584119        1.0240898       0.54555820E-02   0.12847028E-01
  2188.3500        1.1188153        1.1344612        1.0013401        1.0169843       0.89073056E-02  -0.50151609E-02
  2189.1000        1.1241124        1.1307522        1.0040722        1.0107103      -0.20671594E-02  -0.15203032E-01
  2189.8500        1.1157146        1.1278434       0.99310941        1.0052365      -0.13897243E-01  -0.32362310E-02
  2190.6000        1.1032666        1.1257033       0.97809641        1.0005315      -0.69215060E-02   0.12508031E-01
  2191.3500        1.1053323        1.1243007       0.97759720       0.99656391       0.48648040E-02   0.10752465E-01
  2192.1000        1.1105638        1.1236041       0.98026370       0.99330235       0.92071919E-02  -0.81844101E-03
  2192.8500        1.1191431        1.1235821       0.98627808       0.99071541       0.36371425E-02  -0.50058776E-02
  2193.6000        1.1160195        1.1242034       0.98058949       0.98877170       0.16983754E-02   0.28853310E-02
  2194.3500        1.1216907        1.1254365       0.98369572       0.98743985       0.79651390E-02   0.51013313E-02
  2195.1000        1.1279672        1.1272501       0.98740729       0.98668845       0.93503724E-02  -0.24100169E-02
  2195.8500        1.1357162        1.1296127       0.99259137       0.98648612       0.43501136E-02   0.70037869E-03
  2196.6000        1.1344924        1.1324930       0.98880254       0.98680146       0.10400940E-01   0.24944106E-02
  2197.3500        1.1513176        1.1358596        1.0030629       0.98760309       0.80917296E-02  -0.10997829E-03
  2198.1000        1.1466299        1.1396811       0.99581022       0.98885962       0.10235973E-01  -0.17385986E-02
  2198.8500        1.1666716        1.1439261        1.0132869       0.99053965       0.54838317E-02  -0.58775755E-02
  2199.6000        1.1548557        1.1485632       0.99890605       0.99261180       0.14196098E-02   0.42656118E-02
  2200.3500        1.1688010        1.1535611        1.0102864       0.99504467       0.11882249E-01   0.60356582E-02
  2201.1000        1.1726791        1.1588882        1.0115995       0.99780689       0.10473097E-01  -0.20162094E-02
  2201.8500        1.1845106        1.1645134        1.0208662        1.0008670       0.88579353E-02  -0.49599941E-02
  2202.6000        1.1859660        1.1704050        1.0197565        1.0041938       0.30331059E-02  -0.41767320E-02
  2203.3500        1.1890603        1.1765319        1.0202859        1.0077556       0.25928374E-02  -0.13154754E-02
  2204.1000        1.1898552        1.1828625        1.0185158        1.0115213       0.10598928E-02  -0.20439260E-02
