# XDI/1.0 Athena/0.9.26
# Element.edge:                  K
# Element.symbol:                P
# Column.1:                      energy eV
# Column.2:                      norm
# Column.3:                      nbkg
# Column.4:                      flat
# Column.5:                      fbkg
# Column.6:                      nder
# Column.7:                      nsec
# Athena.e0:                     2154
# Athena.eshift:                 0
# Athena.rbkg:                   1.0
# Athena.importance:             1
# Athena.standard:               None
# Athena.bkg_kweight:            2
# Athena.edge_step:              0.4554301
# Athena.fixed_step:             no
# Athena.pre_edge_range:         -25.4 -8
# Athena.pre_edge_line:          1.546159 - 0.000691437 * E
# Athena.normalization_range:    28 61.6
# Athena.post_edge_polynomial:   0.087656 + 0.000197112 * E + 0 * E^2 + 0 * E^3
# Athena.spline_range_energy:    0.000 85.601
# Athena.clamps:                 0 24
# Athena.spline_range_k:         0.000 4.740
# Athena.kweight:                2
# Athena.window:                 hanning
# Athena.phase_correction:       no
# Athena.k_range:                2.740 3.000
# Athena.dk:                     1
# Athena.r_range:                1 3
# Athena.dr:                     0.0
# Athena.window:                 hanning
# Athena.plot_multiplier:        1
# Athena.y_offset:               0
# ///
#------------------------
#   e         norm        nbkg        flat        fbkg        nder        nsec
  2105.9000        1.0498796        1.0498796        1.0498796        1.0498796      -0.45208239       0.10776758
  2107.9000       0.14571477       0.14571477       0.14571477       0.14571477      -0.23654724       0.10942919
  2109.9000       0.10369059       0.10369059       0.10369059       0.10369059      -0.14365653E-01   0.57626337E-01
  2111.9000       0.88252158E-01   0.88252159E-01   0.88252159E-01   0.88252159E-01  -0.60418948E-02   0.22954908E-02
  2113.9000       0.79523010E-01   0.79523012E-01   0.79523012E-01   0.79523012E-01  -0.51836896E-02   0.67393711E-04
  2115.9000       0.67517399E-01   0.67517400E-01   0.67517400E-01   0.67517400E-01  -0.57723200E-02   0.95129855E-05
  2117.9000       0.56433730E-01   0.56433731E-01   0.56433731E-01   0.56433731E-01  -0.51456377E-02   0.53974363E-03
  2119.9000       0.46934849E-01   0.46934849E-01   0.46934849E-01   0.46934849E-01  -0.36133455E-02   0.12295383E-03
  2121.9000       0.41980348E-01   0.41980349E-01   0.41980349E-01   0.41980349E-01  -0.46538224E-02  -0.36603325E-03
  2123.9000       0.28319559E-01   0.28319560E-01   0.28319560E-01   0.28319560E-01  -0.50774785E-02   0.51110298E-03
  2125.9000       0.21670434E-01   0.21670435E-01   0.21670435E-01   0.21670435E-01  -0.26094104E-02   0.47929912E-03
  2127.9000       0.17881917E-01   0.17881918E-01   0.17881918E-01   0.17881918E-01  -0.31602820E-02   0.83689021E-04
  2129.9000       0.90293063E-02   0.90293064E-02   0.90293064E-02   0.90293064E-02  -0.22746543E-02   0.34196438E-03
  2131.9000       0.87833001E-02   0.87833002E-02   0.87833002E-02   0.87833002E-02  -0.17924245E-02  -0.13741475E-03
  2133.9000       0.18596084E-02   0.18596084E-02   0.18596084E-02   0.18596084E-02  -0.28243133E-02  -0.64002960E-04
  2135.9000      -0.25139532E-02  -0.25139533E-02  -0.25139533E-02  -0.25139533E-02  -0.20484363E-02   0.36219979E-03
  2137.9000      -0.63341369E-02  -0.63341370E-02  -0.63341370E-02  -0.63341370E-02  -0.13755142E-02   0.23546192E-03
  2139.9000      -0.80160100E-02  -0.80160101E-02  -0.80160101E-02  -0.80160101E-02  -0.11065886E-02  -0.10412737E-02
  2140.1000      -0.87686319E-02  -0.87686320E-02  -0.87686320E-02  -0.87686320E-02  -0.36663163E-02  -0.91064030E-02
  2140.3000      -0.94825365E-02  -0.94825367E-02  -0.94825367E-02  -0.94825367E-02  -0.47491498E-02   0.16521813E-01
  2140.5000      -0.10668292E-01  -0.10668292E-01  -0.10668292E-01  -0.10668292E-01   0.29424091E-02   0.23202133E-01
  2140.7000      -0.83055729E-02  -0.83055730E-02  -0.83055730E-02  -0.83055730E-02   0.45317034E-02   0.43997558E-02
  2140.9000      -0.88556104E-02  -0.88556106E-02  -0.88556106E-02  -0.88556106E-02   0.47023114E-02   0.16749483E-01
  2141.1000      -0.64246483E-02  -0.64246484E-02  -0.64246484E-02  -0.64246484E-02   0.11231497E-01  -0.19200078E-01
  2141.3000      -0.43630118E-02  -0.43630119E-02  -0.43630119E-02  -0.43630119E-02  -0.29777200E-02  -0.45624468E-01
  2141.5000      -0.76157363E-02  -0.76157364E-02  -0.76157364E-02  -0.76157364E-02  -0.70182905E-02   0.79248027E-02
  2141.7000      -0.71703280E-02  -0.71703282E-02  -0.71703282E-02  -0.71703282E-02   0.19220112E-03   0.39301104E-01
  2141.9000      -0.75388558E-02  -0.75388560E-02  -0.75388560E-02  -0.75388560E-02   0.87021512E-02   0.50700288E-02
  2142.1000      -0.36894675E-02  -0.36894676E-02  -0.36894676E-02  -0.36894676E-02   0.22202126E-02  -0.35149603E-01
  2142.3000      -0.66507708E-02  -0.66507709E-02  -0.66507709E-02  -0.66507709E-02  -0.53576900E-02   0.40657995E-03
  2142.5000      -0.58325435E-02  -0.58325436E-02  -0.58325436E-02  -0.58325436E-02   0.23828446E-02   0.12830783E-01
  2142.7000      -0.56976330E-02  -0.56976331E-02  -0.56976331E-02  -0.56976331E-02  -0.22537667E-03   0.47801517E-02
  2142.9000      -0.59226942E-02  -0.59226943E-02  -0.59226943E-02  -0.59226943E-02   0.42949053E-02   0.17467499E-01
  2143.1000      -0.39796708E-02  -0.39796709E-02  -0.39796709E-02  -0.39796709E-02   0.67616230E-02  -0.16516118E-02
  2143.3000      -0.32180450E-02  -0.32180451E-02  -0.32180451E-02  -0.32180451E-02   0.36342606E-02  -0.10335409E-01
  2143.5000      -0.25259666E-02  -0.25259667E-02  -0.25259667E-02  -0.25259667E-02   0.26274595E-02   0.78830290E-02
  2143.7000      -0.21670612E-02  -0.21670612E-02  -0.21670612E-02  -0.21670612E-02   0.67874722E-02   0.21452359E-01
  2143.9000       0.18902224E-03   0.18902225E-03   0.18902225E-03   0.18902225E-03   0.11208403E-01  -0.10804114E-01
  2144.1000       0.23163000E-02   0.23163000E-02   0.23163000E-02   0.23163000E-02   0.24658266E-02  -0.39388302E-01
  2144.3000       0.11753529E-02   0.11753529E-02   0.11753529E-02   0.11753529E-02  -0.45469179E-02   0.13933367E-01
  2144.5000       0.49753282E-03   0.49753283E-03   0.49753283E-03   0.49753283E-03   0.80391735E-02   0.32441010E-01
  2144.7000       0.43910223E-02   0.43910224E-02   0.43910224E-02   0.43910224E-02   0.84294859E-02  -0.74120594E-02
  2144.9000       0.38693272E-02   0.38693273E-02   0.38693273E-02   0.38693273E-02   0.50743498E-02   0.12357014E-01
  2145.1000       0.64207622E-02   0.64207623E-02   0.64207623E-02   0.64207623E-02   0.13372292E-01   0.23788900E-01
  2145.3000       0.92182438E-02   0.92182440E-02   0.92182440E-02   0.92182440E-02   0.14589910E-01   0.57284311E-02
  2145.5000       0.12256726E-01   0.12256726E-01   0.12256726E-01   0.12256726E-01   0.15663664E-01   0.20951760E-02
  2145.7000       0.15483709E-01   0.15483710E-01   0.15483710E-01   0.15483710E-01   0.15427980E-01   0.13699701E-01
  2145.9000       0.18427918E-01   0.18427919E-01   0.18427919E-01   0.18427919E-01   0.21143544E-01   0.15889691E-01
  2146.1000       0.23941127E-01   0.23941128E-01   0.23941128E-01   0.23941128E-01   0.21783857E-01   0.21488821E-01
  2146.3000       0.27141461E-01   0.27141461E-01   0.27141461E-01   0.27141461E-01   0.29739073E-01   0.61988134E-01
  2146.5000       0.35836756E-01   0.35836757E-01   0.35836757E-01   0.35836757E-01   0.46579110E-01   0.90637412E-01
  2146.7000       0.45773105E-01   0.45773106E-01   0.45773106E-01   0.45773106E-01   0.65994038E-01   0.14028949
  2146.9000       0.62234371E-01   0.62234372E-01   0.62234372E-01   0.62234372E-01   0.10269490       0.21412181
  2147.1000       0.86851067E-01   0.86851068E-01   0.86851068E-01   0.86851068E-01   0.15164276       0.32088628
  2147.3000       0.12289148       0.12289148       0.12289148       0.12289148       0.23104942       0.28401961
  2147.5000       0.17927083       0.17927084       0.17927084       0.17927084       0.26525060       0.28271764E-01
  2147.7000       0.22899172       0.22899172       0.22899172       0.22899172       0.24235812      -0.85268984E-01
  2147.9000       0.27621408       0.27621409       0.27621409       0.27621409       0.23114301      -0.15040233
  2148.1000       0.32144892       0.32144893       0.32144893       0.32144893       0.18219719      -0.29295810
  2148.3000       0.34909296       0.34909297       0.34909297       0.34909297       0.11395977      -0.23482171
  2148.5000       0.36703283       0.36703284       0.36703284       0.36703284       0.88268509E-01  -0.15471831
  2148.7000       0.38440036       0.38440037       0.38440037       0.38440037       0.52072450E-01  -0.16667198
  2148.9000       0.38786181       0.38786182       0.38786182       0.38786182       0.21599718E-01  -0.11039674
  2149.1000       0.39304025       0.39304026       0.39304026       0.39304026       0.79137536E-02  -0.10577117
  2149.3000       0.39102731       0.39102732       0.39102732       0.39102732      -0.20708750E-01  -0.13157013
  2149.5000       0.38475675       0.38475676       0.38475676       0.38475676      -0.44714300E-01  -0.11092605
  2149.7000       0.37314159       0.37314160       0.37314160       0.37314160      -0.65079170E-01   0.11044368E-01
  2149.9000       0.35872508       0.35872509       0.35872509       0.35872509      -0.40296553E-01   0.26617819
  2150.1000       0.35702297       0.35702298       0.35702298       0.35702298       0.41392107E-01   0.48076861
  2150.3000       0.37528193       0.37528193       0.37528193       0.37528193       0.15201089       0.76704840
  2150.5000       0.41782733       0.41782734       0.41782734       0.41782734       0.34821147        1.1699255
  2150.7000       0.51456651       0.51456652       0.51456652       0.51456652       0.61998111        1.3103637
  2150.9000       0.66581977       0.66581978       0.66581978       0.66581978       0.87235693        1.1709338
  2151.1000       0.86350929       0.86350930       0.86350930       0.86350930        1.0883546        1.0828523
  2151.3000        1.1011616        1.1011616        1.1011616        1.1011616        1.3054979        1.9303250
  2151.5000        1.3857084        1.3857085        1.3857085        1.3857085        1.8604846        4.1116404
  2151.7000        1.8453555        1.8453555        1.8453555        1.8453555        2.9501540        6.4622099
  2151.9000        2.5657700        2.5657701        2.5657701        2.5657701        4.4453686        7.2335069
  2152.1000        3.6235029        3.6235030        3.6235030        3.6235030        5.8435568        5.5421333
  2152.3000        4.9031927        4.9031928        4.9031928        4.9031928        6.6622219      -0.33287352
  2152.5000        6.2883917        6.2883918        6.2883918        6.2883918        5.7104074       -7.4505573
  2152.7000        7.1873557        7.1873558        7.1873558        7.1873558        3.6819990       -9.6422479
  2152.9000        7.7611912        7.7611914        7.7611914        7.7611914        1.8535082       -9.6694680
  2153.1000        7.9287590        7.9287591        7.9287591        7.9287591      -0.18578825       -9.7724613
  2153.3000        7.6868759        7.6868761        7.6868761        7.6868761       -2.0554763       -8.4447110
  2153.5000        7.1065684        7.1065686        7.1065686        7.1065686       -3.5636726       -6.0232156
  2153.7000        6.2614069        6.2614070        6.2614070        6.2614070       -4.4647626       -2.7423020
  2153.9000        5.3206634        5.3206635        5.3208586        5.3208586       -4.6605934       0.28862003
  2154.1000        4.3971695       0.75354301        4.3969745       0.75334789       -4.3493146        2.6880853
  2154.3000        3.5809375       0.96477902        3.5803523       0.96419370       -3.5853593        4.1358761
  2154.5000        2.9630258       0.99946549        2.9620503       0.99848997       -2.6949641        4.0759300
  2154.7000        2.5029519        1.0332324        2.5015862        1.0318667       -1.9549873        3.3173474
  2154.9000        2.1810309        1.0660896        2.1792750        1.0643337       -1.3680252        2.5512135
  2155.1000        1.9557418        1.0980469        1.9535957        1.0959007      -0.93450187        1.7638645
  2155.3000        1.8072301        1.1291140        1.8046938        1.1265777      -0.66247940        1.1509616
  2155.5000        1.6907501        1.1593010        1.6878235        1.1563744      -0.47411723       0.84245803
  2155.7000        1.6175833        1.1886174        1.6142665        1.1853007      -0.32549619       0.42870917
  2155.9000        1.5605516        1.2170733        1.5568447        1.2133664      -0.30263357       0.14677060
  2156.1000        1.4965298        1.2446784        1.4924327        1.2405812      -0.26678795       0.28318602
  2156.3000        1.4538364        1.2714424        1.4493491        1.2669551      -0.18935916       0.26408978
  2156.5000        1.4207862        1.2973754        1.4159086        1.2924978      -0.16115203       0.18000992
  2156.7000        1.3893756        1.3224870        1.3841079        1.3172192      -0.11735519       0.13370644
  2156.9000        1.3738441        1.3467871        1.3681862        1.3411291      -0.10766946       0.18166070E-01
  2157.1000        1.3463078        1.3702855        1.3402597        1.3642373      -0.11008877       0.50313154E-01
  2157.3000        1.3298086        1.3929920        1.3233703        1.3865537      -0.87544197E-01   0.97098049E-01
  2157.5000        1.3112901        1.4149165        1.3044616        1.4080880      -0.71249546E-01   0.85112538E-01
  2157.7000        1.3013088        1.4360688        1.2940900        1.4288500      -0.53499182E-01   0.14777624
  2157.9000        1.2898904        1.4564587        1.2822815        1.4488497      -0.12139049E-01   0.14234772
  2158.1000        1.2964531        1.4760960        1.2884540        1.4680969       0.34399058E-02   0.29775425E-01
  2158.3000        1.2912664        1.4949906        1.2828771        1.4866012      -0.22887886E-03   0.86326363E-01
  2158.5000        1.2963616        1.5131522        1.2875821        1.5043727       0.37970451E-01   0.90968129E-01
  2158.7000        1.3064546        1.5305908        1.2972849        1.5214210       0.36158373E-01   0.16617808E-01
  2158.9000        1.3108249        1.5473160        1.3012650        1.5377561       0.44617574E-01   0.76541794E-01
  2159.1000        1.3243016        1.5633378        1.3143515        1.5533877       0.66775090E-01   0.14207161
  2159.3000        1.3375350        1.5786660        1.3271946        1.5683256       0.10144622       0.12693454
  2159.5000        1.3648801        1.5933103        1.3541496        1.5825798       0.11754891      -0.75177013E-01
  2159.7000        1.3845545        1.6072807        1.3734338        1.5961599       0.71375412E-01  -0.19100047
  2159.9000        1.3934303        1.6205869        1.3819193        1.6090759       0.41148718E-01  -0.94748896E-02
  2160.4000        1.4133586        1.6510111        1.4008722        1.6385246       0.64742989E-01   0.26162525E-01
  2160.9000        1.4581733        1.6774991        1.4447113        1.6640371       0.67311243E-01   0.38725810E-02
  2161.4000        1.4806699        1.7002044        1.4662324        1.6857669       0.68615570E-01  -0.65197710E-02
  2161.9000        1.5267888        1.7192805        1.5113759        1.7038675       0.60791472E-01  -0.19982342E-01
  2162.4000        1.5414614        1.7348808        1.5250729        1.7184923       0.48633229E-01  -0.11214630E-01
  2162.9000        1.5754221        1.7471589        1.5580581        1.7297949       0.49576842E-01  -0.39438982E-02
  2163.4000        1.5910382        1.7562681        1.5726987        1.7379286       0.44689331E-01  -0.17921301E-02
  2163.9000        1.6201114        1.7623621        1.6007964        1.7430470       0.47784712E-01  -0.82882092E-03
  2164.4000        1.6388229        1.7655942        1.6185324        1.7453036       0.43860510E-01   0.66804982E-02
  2164.9000        1.6639719        1.7661179        1.6427059        1.7448519       0.54465210E-01   0.91522715E-02
  2165.4000        1.6932881        1.7640867        1.6710466        1.7418452       0.53012781E-01  -0.42836430E-02
  2165.9000        1.7169847        1.7596542        1.6937677        1.7364372       0.50181567E-01   0.61628995E-02
  2166.4000        1.7434697        1.7529737        1.7192772        1.7287812       0.59175681E-01   0.62638151E-02
  2166.9000        1.7761604        1.7441988        1.7509924        1.7190307       0.56445383E-01  -0.58028223E-02
  2167.4000        1.7999151        1.7334829        1.7737716        1.7073393       0.53372858E-01  -0.27236451E-02
  2167.9000        1.8295332        1.7209795        1.8024142        1.6938604       0.53721737E-01  -0.12807476E-01
  2168.4000        1.8536368        1.7068421        1.8255423        1.6787475       0.40565383E-01  -0.24639192E-01
  2168.9000        1.8700986        1.6912241        1.8410286        1.6621541       0.29082545E-01  -0.26116236E-01
  2169.4000        1.8827194        1.6742791        1.8526738        1.6442335       0.14449147E-01  -0.35060791E-01
  2169.9000        1.8845478        1.6561605        1.8535267        1.6251394      -0.59782462E-02  -0.50030575E-01
  2170.4000        1.8767411        1.6370218        1.8447446        1.6050252      -0.35581427E-01  -0.45117263E-01
  2170.9000        1.8489663        1.6170165        1.8159943        1.5840444      -0.51095509E-01  -0.24427898E-01
  2171.4000        1.8256456        1.5962980        1.7916980        1.5623504      -0.60009325E-01  -0.27276106E-01
  2171.9000        1.7889570        1.5750199        1.7540339        1.5400968      -0.78371616E-01  -0.31217348E-01
  2172.4000        1.7472740        1.5533355        1.7113754        1.5174369      -0.91226673E-01  -0.25499500E-01
  2172.9000        1.6977303        1.5313985        1.6608563        1.4945244      -0.10387112      -0.16680737E-01
  2173.4000        1.6434029        1.5093622        1.6055533        1.4715126      -0.10790741      -0.39867808E-03
  2173.9000        1.5898229        1.4873801        1.5509978        1.4485550      -0.10426979       0.20661260E-01
  2174.4000        1.5391331        1.4656058        1.4993325        1.4258052      -0.87246150E-01   0.31090127E-01
  2174.9000        1.5025768        1.4441927        1.4618007        1.4034166      -0.73179666E-01  -0.17764087E-02
  2175.4000        1.4659534        1.4232941        1.4242018        1.3815425      -0.89022558E-01  -0.31482811E-01
  2175.9000        1.4135542        1.4030231        1.3708271        1.3602960      -0.10466248       0.12791205E-01
  2176.4000        1.3612909        1.3833885        1.3175883        1.3396859      -0.76231353E-01   0.34430815E-01
  2176.9000        1.3373229        1.3643828        1.2926447        1.3197047      -0.70231662E-01   0.81110360E-02
  2177.4000        1.2910593        1.3459985        1.2454056        1.3003448      -0.68120317E-01   0.17606917E-01
  2177.9000        1.2692025        1.3282279        1.2225734        1.2815988      -0.52624745E-01   0.14463032E-01
  2178.4000        1.2384345        1.3110637        1.1908299        1.2634590      -0.53657285E-01   0.36642505E-02
  2178.9000        1.2155453        1.2944981        1.1669651        1.2459179      -0.48960495E-01   0.93419603E-02
  2179.4000        1.1894740        1.2785236        1.1399184        1.2289679      -0.44315325E-01   0.13235576E-01
  2179.9000        1.1712299        1.2631327        1.1206988        1.2126016      -0.35724918E-01   0.14357110E-01
  2180.4000        1.1537491        1.2483179        1.1022425        1.1968113      -0.29958215E-01   0.10487120E-01
  2180.9000        1.1412717        1.2340716        1.0887896        1.1815894      -0.25237799E-01   0.14732579E-01
  2181.4000        1.1285113        1.2203863        1.0750537        1.1669286      -0.15225637E-01   0.18354628E-01
  2181.9000        1.1260461        1.2072543        1.0716129        1.1528211      -0.68831710E-02  -0.81918168E-03
  2182.4000        1.1216281        1.1946682        1.0662195        1.1392595      -0.16044818E-01  -0.15625383E-01
  2182.9000        1.1100013        1.1826203        1.0536171        1.1262361      -0.22508554E-01   0.76209937E-02
  2183.4000        1.0991196        1.1711032        1.0417599        1.1137435      -0.84238245E-02   0.17996878E-01
  2183.9000        1.1015774        1.1601093        1.0432422        1.1017741      -0.45116765E-02   0.64448967E-03
  2184.4000        1.0946079        1.1496311        1.0352972        1.0903204      -0.77793349E-02   0.18706054E-02
  2184.9000        1.0937981        1.1396609        1.0335119        1.0793747      -0.26410712E-02  -0.20964578E-02
  2185.4000        1.0919668        1.1301913        1.0307051        1.0689296      -0.98757927E-02  -0.10746457E-01
  2185.9000        1.0839223        1.1212147        1.0216851        1.0589775      -0.13387528E-01   0.67638040E-02
  2186.4000        1.0785793        1.1127235        1.0153666        1.0495108      -0.31119886E-02   0.12651557E-01
  2186.9000        1.0808103        1.1047102        1.0166221        1.0405220      -0.73597094E-03  -0.67322514E-02
  2187.4000        1.0778433        1.0971673        1.0126796        1.0320036      -0.98442401E-02  -0.12405658E-01
  2187.9000        1.0709661        1.0900871        1.0048269        1.0239479      -0.13141629E-01   0.26956935E-02
  2188.4000        1.0647017        1.0834622       0.99758698        1.0163475      -0.71485465E-02   0.69897004E-02
  2188.9000        1.0638175        1.0772850       0.99572730        1.0091948      -0.61519282E-02   0.30377877E-03
  2189.4000        1.0585498        1.0715479       0.98948404        1.0024822      -0.68447678E-02   0.92376414E-03
  2189.9000        1.0569728        1.0662434       0.98693152       0.99620218      -0.52281641E-02   0.10941525E-02
  2190.4000        1.0533216        1.0613640       0.98230487       0.99034723      -0.57506152E-02   0.57111288E-02
  2190.9000        1.0512221        1.0569020       0.97922990       0.98490977       0.48296473E-03   0.26878548E-02
  2191.4000        1.0538046        1.0528500       0.98083683       0.97988225      -0.30627604E-02  -0.14344792E-01
  2191.9000        1.0481594        1.0492004       0.97421613       0.97525712      -0.13861827E-01  -0.57111947E-02
  2192.4000        1.0399428        1.0459456       0.96502399       0.97102683      -0.87739551E-02   0.17962295E-01
  2192.9000        1.0393854        1.0430781       0.96349116       0.96718383       0.41004682E-02   0.11822802E-01
  2193.4000        1.0440432        1.0405904       0.96717345       0.96372057       0.30488469E-02  -0.60283015E-02
  2193.9000        1.0424343        1.0384748       0.96458900       0.96062949      -0.19278333E-02  -0.17263242E-02
  2194.4000        1.0421154        1.0367239       0.96329460       0.95790306       0.13225227E-02   0.76698706E-02
  2194.9000        1.0437568        1.0353300       0.96396051       0.95553371       0.57420373E-02   0.38996104E-03
  2195.4000        1.0478574        1.0342857       0.96708563       0.95351390       0.17124838E-02  -0.93884439E-02
  2195.9000        1.0454693        1.0335834       0.96372199       0.95183608      -0.36464065E-02  -0.75986412E-02
  2196.4000        1.0442110        1.0332155       0.96148822       0.95049269      -0.58861574E-02   0.10807608E-01
  2196.9000        1.0395831        1.0331745       0.95588482       0.94947619       0.71612013E-02   0.16829564E-01
  2197.4000        1.0513722        1.0334529       0.96669841       0.94877903       0.10943406E-01  -0.82495644E-02
  2197.9000        1.0505265        1.0340430       0.96487721       0.94839366      -0.10883631E-02  -0.37052447E-02
  2198.4000        1.0502839        1.0349374       0.96365903       0.94831252       0.72381615E-02   0.99500229E-02
  2198.9000        1.0577647        1.0361284       0.97016437       0.94852807       0.88616598E-02  -0.39371354E-02
  2199.4000        1.0591455        1.0376086       0.97056969       0.94903275       0.33010261E-02   0.29825506E-02
  2199.9000        1.0610657        1.0393704       0.97151438       0.94981902       0.11844210E-01  -0.22121214E-03
  2200.9000        1.0769118        1.0437085       0.98540949       0.95220611       0.29692079E-02  -0.54447085E-02
  2201.9000        1.0670041        1.0490823       0.97355078       0.95562895       0.95479344E-03   0.24915733E-02
  2202.9000        1.0788214        1.0554315       0.98341705       0.96002712       0.79523545E-02   0.14935277E-02
  2203.9000        1.0829088        1.0626956       0.98555347       0.96534022       0.39418489E-02  -0.20486458E-02
  2204.9000        1.0867051        1.0708143       0.98739873       0.97150785       0.38550628E-02   0.19395786E-02
  2205.9000        1.0906190        1.0797270       0.98936158       0.97846962       0.78210062E-02   0.33823796E-02
  2206.9000        1.1023471        1.0893735       0.99913873       0.98616511       0.10619822E-01  -0.49886908E-04
  2207.9000        1.1118586        1.0996934        1.0066992       0.99453393       0.77212323E-02  -0.58559479E-03
  2208.9000        1.1177896        1.1106261        1.0106792        1.0035157       0.94486324E-02   0.12637340E-02
  2209.9000        1.1307559        1.1221114        1.0216944        1.0130499       0.10248700E-01  -0.71661929E-03
  2210.9000        1.1382870        1.1340888        1.0272746        1.0230763       0.80153938E-02  -0.71238154E-03
  2211.9000        1.1467867        1.1464979        1.0338232        1.0335344       0.88239372E-02   0.18110353E-03
  2212.9000        1.1559349        1.1592783        1.0410204        1.0443638       0.83776009E-02   0.71093785E-03
  2213.9000        1.1635419        1.1723697        1.0466764        1.0555042       0.10245813E-01   0.36257484E-02
  2214.9000        1.1764265        1.1857115        1.0576100        1.0668950       0.15629098E-01   0.12919436E-02
  2215.9000        1.1948001        1.1992435        1.0740326        1.0784759       0.12829700E-01  -0.21587286E-02
  2216.9000        1.2020859        1.2129051        1.0793674        1.0901866       0.11311641E-01   0.14927702E-02
  2217.9000        1.2174233        1.2266361        1.0927538        1.1019666       0.15815240E-01   0.15576375E-02
  2218.9000        1.2337164        1.2403760        1.1070959        1.1137554       0.14426915E-01  -0.15205901E-02
  2219.9000        1.2462772        1.2540643        1.1177057        1.1254928       0.12774060E-01   0.87767583E-03
  2220.9000        1.2592645        1.2676408        1.1287420        1.1371182       0.16182267E-01   0.12797244E-03
  2221.9000        1.2786417        1.2810450        1.1461682        1.1485714       0.13030005E-01  -0.20133825E-02
  2222.9000        1.2853245        1.2942164        1.1509000        1.1597918       0.12155502E-01  -0.41449280E-03
  2223.9000        1.3029527        1.3070948        1.1665772        1.1707192       0.12201020E-01   0.55539257E-03
  2224.9000        1.3097266        1.3196196        1.1714000        1.1812930       0.13266287E-01   0.10419491E-02
  2225.9000        1.3294853        1.3317305        1.1892077        1.1914529       0.14284918E-01  -0.20369207E-02
  2226.9000        1.3382964        1.3433671        1.1960678        1.2011385       0.91924460E-02  -0.33543017E-02
  2227.9000        1.3478702        1.3544690        1.2036906        1.2102894       0.75763144E-02   0.13023019E-02
  2228.9000        1.3534490        1.3649758        1.2073184        1.2188451       0.11797050E-01   0.24366307E-02
  2229.9000        1.3714643        1.3748270        1.2233827        1.2267454       0.12449576E-01  -0.39353404E-02
  2230.9000        1.3783482        1.3839623        1.2283155        1.2339297       0.39263690E-02  -0.56156531E-02
  2231.9000        1.3793170        1.3923213        1.2273334        1.2403377       0.12182696E-02   0.14308837E-02
  2232.9000        1.3807847        1.3998436        1.2268501        1.2459089       0.67881364E-02   0.20417403E-02
  2233.9000        1.3928933        1.4064688        1.2370076        1.2505831       0.53017502E-02  -0.16764427E-02
  2234.9000        1.3913882        1.4121364        1.2335515        1.2542997       0.34352509E-02  -0.75859609E-03
  2235.9000        1.3997638        1.4167860        1.2399761        1.2569983       0.37845580E-02   0.17706614E-02
  2236.9000        1.3989573        1.4203574        1.2372186        1.2586187       0.69765736E-02   0.54875325E-02
  2237.9000        1.4137169        1.4227900        1.2500272        1.2591002       0.14759623E-01   0.77830493E-02
