# XDI/1.0 Athena/0.9.26
# Element.edge:                  K
# Element.symbol:                P
# Column.1:                      energy eV
# Column.2:                      norm
# Column.3:                      nbkg
# Column.4:                      flat
# Column.5:                      fbkg
# Column.6:                      nder
# Column.7:                      nsec
# Athena.e0:                     2154
# Athena.eshift:                 0
# Athena.rbkg:                   1.0
# Athena.importance:             1
# Athena.standard:               None
# Athena.bkg_kweight:            2
# Athena.edge_step:              0.0441936
# Athena.fixed_step:             no
# Athena.pre_edge_range:         -25 -8
# Athena.pre_edge_line:          2.874123 - 0.00129589 * E
# Athena.normalization_range:    31 58
# Athena.post_edge_polynomial:   1.672235 - 0.000717394 * E + 0 * E^2 + 0 * E^3
# Athena.spline_range_energy:    0.000 86.616
# Athena.clamps:                 0 24
# Athena.spline_range_k:         0.000 4.768
# Athena.kweight:                2
# Athena.window:                 hanning
# Athena.phase_correction:       no
# Athena.k_range:                2.768 3.000
# Athena.dk:                     1
# Athena.r_range:                1 3
# Athena.dr:                     0.0
# Athena.window:                 hanning
# Athena.plot_multiplier:        1
# Athena.y_offset:               0
# ///
#------------------------
#   e         norm        nbkg        flat        fbkg        nder        nsec
  2125.4900       0.11815510       0.11815500       0.11815500       0.11815500      -0.14540786E-01  -0.62226259E-03
  2127.4900       0.89073529E-01   0.89073452E-01   0.89073452E-01   0.89073452E-01  -0.15785312E-01  -0.97157818E-03
  2129.4900       0.55013856E-01   0.55013808E-01   0.55013808E-01   0.55013808E-01  -0.18427099E-01   0.17960761E-03
  2131.4900       0.15365133E-01   0.15365120E-01   0.15365120E-01   0.15365120E-01  -0.15066881E-01   0.38354003E-02
  2133.4900      -0.52536685E-02  -0.52536637E-02  -0.52536639E-02  -0.52536637E-02  -0.30854978E-02   0.22373169E-02
  2135.4900       0.30231418E-02   0.30231394E-02   0.30231392E-02   0.30231394E-02  -0.61176137E-02   0.10465325E-03
  2137.4900      -0.29724123E-01  -0.29724097E-01  -0.29724097E-01  -0.29724097E-01  -0.26668848E-02   0.26460302E-02
  2139.4900      -0.76443974E-02  -0.76443906E-02  -0.76443908E-02  -0.76443906E-02   0.44665072E-02   0.25524766E-03
  2140.4900      -0.16324602E-01  -0.16324587E-01  -0.16324587E-01  -0.16324587E-01  -0.19011418E-02   0.79217627E-01
  2140.5900      -0.97356535E-02  -0.97356448E-02  -0.97356450E-02  -0.97356448E-02   0.91605897E-01   0.40606491E-01
  2140.6900       0.19965778E-02   0.19965763E-02   0.19965761E-02   0.19965763E-02   0.62201563E-02  -0.85838296
  2140.7900      -0.84916222E-02  -0.84916146E-02  -0.84916148E-02  -0.84916146E-02  -0.80070694E-01  -0.32419881
  2140.8900      -0.14017561E-01  -0.14017549E-01  -0.14017549E-01  -0.14017549E-01  -0.58619605E-01   0.15952550
  2140.9900      -0.20215543E-01  -0.20215525E-01  -0.20215526E-01  -0.20215525E-01  -0.48165594E-01   0.42613673
  2141.0900      -0.23650680E-01  -0.23650659E-01  -0.23650659E-01  -0.23650659E-01   0.26607741E-01   0.69761293
  2141.1900      -0.14893995E-01  -0.14893982E-01  -0.14893982E-01  -0.14893982E-01   0.91356992E-01  -0.69919687E-01
  2141.2900      -0.53792813E-02  -0.53792764E-02  -0.53792766E-02  -0.53792764E-02   0.12623804E-01  -0.74134102
  2141.3900      -0.12369234E-01  -0.12369223E-01  -0.12369223E-01  -0.12369223E-01  -0.56911212E-01   0.22814409
  2141.4900      -0.16761524E-01  -0.16761509E-01  -0.16761509E-01  -0.16761509E-01   0.58252623E-01   0.37245244
  2141.5900      -0.71870964E-03  -0.71870882E-03  -0.71870902E-03  -0.71870882E-03   0.17579277E-01  -0.43835571
  2141.6900      -0.13245668E-01  -0.13245656E-01  -0.13245657E-01  -0.13245656E-01  -0.29418519E-01   0.36255281
  2141.7900      -0.66024135E-02  -0.66024075E-02  -0.66024077E-02  -0.66024075E-02   0.90089839E-01   0.51687393
  2141.8900       0.47722997E-02   0.47722957E-02   0.47722955E-02   0.47722957E-02   0.73956267E-01  -0.70508008
  2141.9900       0.81888400E-02   0.81888331E-02   0.81888329E-02   0.81888331E-02  -0.50926177E-01  -0.65863666
  2142.0900      -0.54129357E-02  -0.54129308E-02  -0.54129310E-02  -0.54129308E-02  -0.57771065E-01   0.47178818
  2142.1900      -0.33653731E-02  -0.33653699E-02  -0.33653701E-02  -0.33653699E-02   0.43431459E-01   0.27436123E-01
  2142.2900       0.32733561E-02   0.32733535E-02   0.32733533E-02   0.32733535E-02  -0.52283841E-01  -0.37030281
  2142.3900      -0.13822141E-01  -0.13822129E-01  -0.13822129E-01  -0.13822129E-01  -0.30629103E-01   0.50578635
  2142.4900      -0.28524644E-02  -0.28524618E-02  -0.28524620E-02  -0.28524618E-02   0.48873428E-01   0.49164401
  2142.5900      -0.40474556E-02  -0.40474518E-02  -0.40474521E-02  -0.40474518E-02   0.67699700E-01  -0.63640492E-01
  2142.6900       0.10687476E-01   0.10687466E-01   0.10687466E-01   0.10687466E-01   0.36145330E-01  -0.64494689
  2142.7900       0.31816104E-02   0.31816078E-02   0.31816076E-02   0.31816078E-02  -0.61289678E-01  -0.50154365
  2142.8900      -0.15704599E-02  -0.15704584E-02  -0.15704586E-02  -0.15704584E-02  -0.64163399E-01   0.34682654
  2142.9900      -0.96510695E-02  -0.96510609E-02  -0.96510611E-02  -0.96510609E-02   0.80756302E-02   0.28974809
  2143.0900       0.44666100E-04   0.44666265E-04   0.44666061E-04   0.44666265E-04  -0.62137816E-02  -0.23832657
  2143.1900      -0.10893826E-01  -0.10893816E-01  -0.10893816E-01  -0.10893816E-01  -0.39589684E-01   0.42947432
  2143.2900      -0.78732707E-02  -0.78732637E-02  -0.78732639E-02  -0.78732637E-02   0.79681083E-01   0.52688670
  2143.3900       0.50423909E-02   0.50423867E-02   0.50423865E-02   0.50423867E-02   0.65787657E-01  -0.81459830
  2143.4900       0.52842607E-02   0.52842563E-02   0.52842561E-02   0.52842563E-02  -0.83238576E-01  -0.30134480
  2143.5900      -0.11605324E-01  -0.11605314E-01  -0.11605314E-01  -0.11605314E-01   0.55186967E-02   0.62633558
  2143.6900       0.63880000E-02   0.63879946E-02   0.63879944E-02   0.63879946E-02   0.42028540E-01  -0.25812584
  2143.7900      -0.31996164E-02  -0.31996134E-02  -0.31996136E-02  -0.31996134E-02  -0.46106470E-01   0.16071346
  2143.8900      -0.28332941E-02  -0.28332914E-02  -0.28332916E-02  -0.28332914E-02   0.74171231E-01   0.35559478
  2143.9900       0.11634630E-01   0.11634620E-01   0.11634620E-01   0.11634620E-01   0.25012486E-01  -0.69252169
  2144.0900       0.21692032E-02   0.21692015E-02   0.21692013E-02   0.21692015E-02  -0.64333107E-01  -0.63057828
  2144.1900      -0.12319916E-02  -0.12319904E-02  -0.12319906E-02  -0.12319904E-02  -0.10110317       0.23708205
  2144.2900      -0.18051431E-01  -0.18051415E-01  -0.18051415E-01  -0.18051415E-01  -0.16916698E-01   0.80916764
  2144.3900      -0.46153312E-02  -0.46153270E-02  -0.46153272E-02  -0.46153270E-02   0.60730359E-01   0.48485569
  2144.4900      -0.59053588E-02  -0.59053535E-02  -0.59053537E-02  -0.59053535E-02   0.80054441E-01  -0.26593240
  2144.5900       0.11395557E-01   0.11395547E-01   0.11395547E-01   0.11395547E-01   0.75438786E-02  -0.34456377
  2144.6900      -0.43965831E-02  -0.43965791E-02  -0.43965793E-02  -0.43965791E-02   0.11141688E-01   0.35418055
  2144.7900       0.13623894E-01   0.13623883E-01   0.13623883E-01   0.13623883E-01   0.78379989E-01  -0.24816963
  2144.8900       0.11279415E-01   0.11279405E-01   0.11279405E-01   0.11279405E-01  -0.38492239E-01  -0.57180275
  2144.9900       0.59254467E-02   0.59254417E-02   0.59254415E-02   0.59254417E-02  -0.35980561E-01   0.15828097
  2145.0900       0.40833024E-02   0.40832991E-02   0.40832989E-02   0.40832991E-02  -0.68360441E-02   0.13412587
  2145.1900       0.45582378E-02   0.45582341E-02   0.45582339E-02   0.45582341E-02  -0.91553865E-02   0.85136836E-01
  2145.2900       0.22522251E-02   0.22522234E-02   0.22522232E-02   0.22522234E-02   0.10191323E-01   0.83049428
  2145.3900       0.65965024E-02   0.65964969E-02   0.65964967E-02   0.65964969E-02   0.15694347       0.51987211E-01
  2145.4900       0.33640919E-01   0.33640890E-01   0.33640890E-01   0.33640890E-01   0.20588765E-01  -0.93955994
  2145.5900       0.10714255E-01   0.10714246E-01   0.10714246E-01   0.10714246E-01  -0.30968519E-01   0.33998165E-01
  2145.6900       0.27447215E-01   0.27447192E-01   0.27447191E-01   0.27447192E-01   0.27388398E-01  -0.20919337
  2145.7900       0.16191935E-01   0.16191921E-01   0.16191921E-01   0.16191921E-01  -0.72807192E-01  -0.49328452E-01
  2145.8900       0.12885777E-01   0.12885766E-01   0.12885766E-01   0.12885766E-01   0.17522708E-01   0.36917142
  2145.9900       0.19696477E-01   0.19696460E-01   0.19696460E-01   0.19696460E-01   0.10270922E-02   0.27368240
  2146.0900       0.13091195E-01   0.13091184E-01   0.13091184E-01   0.13091184E-01   0.72259188E-01   0.18226637
  2146.1900       0.34148314E-01   0.34148285E-01   0.34148285E-01   0.34148285E-01   0.37480366E-01  -0.13927368
  2146.2900       0.20587268E-01   0.20587251E-01   0.20587250E-01   0.20587251E-01   0.44404452E-01   0.17994703
  2146.3900       0.43029204E-01   0.43029167E-01   0.43029167E-01   0.43029167E-01   0.73469771E-01  -0.50714401
  2146.4900       0.35281223E-01   0.35281192E-01   0.35281192E-01   0.35281192E-01  -0.57024350E-01  -0.18837586
  2146.5900       0.31624334E-01   0.31624307E-01   0.31624307E-01   0.31624307E-01   0.35794600E-01   0.14538317
  2146.6900       0.42440143E-01   0.42440106E-01   0.42440106E-01   0.42440106E-01  -0.27947717E-01  -0.43433929
  2146.7900       0.26034791E-01   0.26034769E-01   0.26034768E-01   0.26034769E-01  -0.51073257E-01   0.59380822
  2146.8900       0.32225491E-01   0.32225463E-01   0.32225463E-01   0.32225463E-01   0.90813927E-01   0.80826253
  2146.9900       0.44197576E-01   0.44197538E-01   0.44197538E-01   0.44197538E-01   0.11057925      -0.50250532
  2147.0900       0.54341341E-01   0.54341294E-01   0.54341294E-01   0.54341294E-01  -0.96871382E-02  -0.46969512
  2147.1900       0.42260149E-01   0.42260112E-01   0.42260112E-01   0.42260112E-01   0.16640226E-01   0.22141234
  2147.2900       0.57669386E-01   0.57669336E-01   0.57669336E-01   0.57669336E-01   0.34595330E-01  -0.18102184
  2147.3900       0.49179215E-01   0.49179172E-01   0.49179172E-01   0.49179172E-01  -0.19564143E-01   0.23182110
  2147.4900       0.53756558E-01   0.53756511E-01   0.53756511E-01   0.53756511E-01   0.80959550E-01   0.48242321
  2147.5900       0.65371125E-01   0.65371068E-01   0.65371068E-01   0.65371068E-01   0.76920500E-01  -0.52937575
  2147.6900       0.69140658E-01   0.69140598E-01   0.69140598E-01   0.69140598E-01  -0.24915601E-01  -0.37827908
  2147.7900       0.60388005E-01   0.60387952E-01   0.60387952E-01   0.60387952E-01   0.12646834E-02   0.89775521
  2147.8900       0.69393594E-01   0.69393534E-01   0.69393534E-01   0.69393534E-01   0.15463544       0.59205457
  2147.9900       0.91315093E-01   0.91315014E-01   0.91315013E-01   0.91315014E-01   0.11967560      -0.84797420
  2148.0900       0.93328714E-01   0.93328633E-01   0.93328633E-01   0.93328633E-01  -0.14959399E-01  -0.78393772
  2148.1900       0.88323213E-01   0.88323136E-01   0.88323136E-01   0.88323136E-01  -0.37111948E-01   0.57700713E-01
  2148.2900       0.85906324E-01   0.85906250E-01   0.85906250E-01   0.85906250E-01  -0.34192568E-02   0.80435925
  2148.3900       0.87639362E-01   0.87639286E-01   0.87639285E-01   0.87639286E-01   0.12375990       0.37748711
  2148.4900       0.11065830       0.11065821       0.11065821       0.11065821       0.72078166E-01  -0.42093236
  2148.5900       0.10205499       0.10205491       0.10205491       0.10205491       0.39573431E-01   0.17264958
  2148.6900       0.11857299       0.11857289       0.11857289       0.11857289       0.10660808       0.56654180
  2148.7900       0.12337661       0.12337650       0.12337650       0.12337650       0.15288179       0.32957289
  2148.8900       0.14914935       0.14914922       0.14914922       0.14914922       0.17252266      -0.89588842
  2148.9900       0.15788114       0.15788101       0.15788101       0.15788101      -0.26295892E-01  -0.56778633
  2149.0900       0.14389017       0.14389005       0.14389005       0.14389005       0.58965396E-01    1.0710271
  2149.1900       0.16967422       0.16967408       0.16967408       0.16967408       0.18790952       0.45521337
  2149.2900       0.18147207       0.18147192       0.18147192       0.18147192       0.15000807      -0.20964592
  2149.3900       0.19967584       0.19967566       0.19967566       0.19967566       0.14598033      -0.20297074
  2149.4900       0.21066814       0.21066796       0.21066796       0.21066796       0.10941392       0.34032107
  2149.5900       0.22155862       0.22155843       0.22155843       0.22155843       0.21404455       0.56852173
  2149.6900       0.25347705       0.25347683       0.25347683       0.25347683       0.22311827       0.49809292
  2149.7900       0.26618227       0.26618204       0.26618204       0.26618204       0.31366313       0.73449613
  2149.8900       0.31620968       0.31620940       0.31620940       0.31620940       0.37001749      -0.92321140E-01
  2149.9900       0.34018577       0.34018548       0.34018548       0.34018548       0.29519890       0.51121700
  2150.0900       0.37524946       0.37524913       0.37524913       0.37524913       0.47226089        1.5709302
  2150.1900       0.43463795       0.43463757       0.43463757       0.43463757       0.60938494        1.2863865
  2150.2900       0.49712644       0.49712601       0.49712601       0.49712601       0.72953819        1.2960033
  2150.3900       0.58054559       0.58054508       0.58054508       0.58054508       0.86858559        1.7383754
  2150.4900       0.67084356       0.67084298       0.67084298       0.67084298        1.0772133        2.1281381
  2150.5900       0.79598824       0.79598755       0.79598755       0.79598755        1.2942132        2.2576818
  2150.6900       0.92968620       0.92968540       0.92968540       0.92968540        1.5287496        2.5507109
  2150.7900        1.1017382        1.1017372        1.1017372        1.1017372        1.8043554        2.3142511
  2150.8900        1.2905573        1.2905562        1.2905562        1.2905562        1.9915999        1.7513863
  2150.9900        1.5000581        1.5000568        1.5000568        1.5000568        2.1546327        2.7470065
  2151.0900        1.7214838        1.7214823        1.7214823        1.7214823        2.5410012        3.9621156
  2151.1900        2.0082584        2.0082566        2.0082566        2.0082566        2.9470558        4.5889037
  2151.2900        2.3108950        2.3108930        2.3108930        2.3108930        3.4587819        7.1577168
  2151.3900        2.7000147        2.7000124        2.7000124        2.7000124        4.3785991        10.342570
  2151.4900        3.1866148        3.1866120        3.1866120        3.1866120        5.5272959        12.068500
  2151.5900        3.8054739        3.8054706        3.8054706        3.8054706        6.7922992        9.5551249
  2151.6900        4.5450746        4.5450707        4.5450707        4.5450707        7.4383209        3.8902726
  2151.7900        5.2931381        5.2931335        5.2931335        5.2931335        7.5703537       -1.3276821
  2151.8900        6.0591454        6.0591401        6.0591401        6.0591401        7.1727844       -7.3302533
  2151.9900        6.7276950        6.7276891        6.7276891        6.7276891        6.1043030       -12.346255
  2152.0900        7.2800060        7.2799996        7.2799996        7.2799996        4.7035334       -14.401419
  2152.1900        7.6684017        7.6683950        7.6683950        7.6683950        3.2240192       -14.363518
  2152.2900        7.9248098        7.9248029        7.9248029        7.9248029        1.8308298       -13.472551
  2152.3900        8.0345676        8.0345606        8.0345606        8.0345606       0.52950905       -10.596000
  2152.4900        8.0307116        8.0307046        8.0307046        8.0307046      -0.28837027       -8.7755996
  2152.5900        7.9768936        7.9768866        7.9768866        7.9768866       -1.2256109       -10.160982
  2152.6900        7.7855894        7.7855827        7.7855827        7.7855827       -2.3205667       -7.8082641
  2152.7900        7.5127802        7.5127737        7.5127737        7.5127737       -2.7872637       -4.7755825
  2152.8900        7.2281367        7.2281304        7.2281304        7.2281304       -3.2756832       -4.3343418
  2152.9900        6.8576436        6.8576376        6.8576376        6.8576376       -3.6541320       -2.0794884
  2153.0900        6.4973103        6.4973046        6.4973046        6.4973046       -3.6915809      -0.49271883
  2153.1900        6.1193274        6.1193221        6.1193221        6.1193221       -3.7526758        1.1930471
  2153.2900        5.7467751        5.7467701        5.7467701        5.7467701       -3.4529715        2.5625905
  2153.3900        5.4287331        5.4287284        5.4287284        5.4287284       -3.2401577        2.0166965
  2153.4900        5.0987436        5.0987392        5.0987392        5.0987392       -3.0496322        3.3539953
  2153.5900        4.8188066        4.8188025        4.8188025        4.8188025       -2.5693586        3.5740500
  2153.6900        4.5848719        4.5848679        4.5848679        4.5848679       -2.3348222        1.9154374
  2153.7900        4.3518422        4.3518384        4.3518384        4.3518384       -2.1862712        1.2784668
  2153.8900        4.1476176        4.1476140        4.1476140        4.1476140       -2.0791289        3.1724078
  2153.9900        3.9360164        3.9360130        3.9361448        3.9361448       -1.5517896        3.9807835
  2154.0900        3.8372597        1.4292739        3.8360791        1.4280967       -1.2829722        1.3259850
  2154.1900        3.6794220        1.4433684        3.6769326        1.4408822       -1.2865926        1.5036127
  2154.2900        3.5799412        1.4572666        3.5761428        1.4534713      -0.98224962        1.9770979
  2154.3900        3.4829721        1.4709696        3.4778648        1.4658653      -0.89117301        1.5873353
  2154.4900        3.4017066        1.4844784        3.3952904        1.4780652      -0.66478256        1.4481748
  2154.5900        3.3500156        1.4977942        3.3422904        1.4900720      -0.60153806      -0.31056560
  2154.6900        3.2813990        1.5109180        3.2723649        1.5018868      -0.72689568      -0.20591235
  2154.7900        3.2046364        1.5238510        3.1942934        1.5135107      -0.64272053        1.1658938
  2154.8900        3.1528549        1.5365941        3.1412029        1.5249448      -0.49371692       0.91416031
  2154.9900        3.1058930        1.5491485        3.0929320        1.5361902      -0.45988846      -0.60302902
  2155.0900        3.0608772        1.5615152        3.0466072        1.5472479      -0.61432272       -1.2977003
  2155.1900        2.9830285        1.5736953        2.9674496        1.5581190      -0.71942853      -0.60529179
  2155.2900        2.9169915        1.5856899        2.9001036        1.5688046      -0.73538108       0.35468968
  2155.3900        2.8359523        1.5975001        2.8177555        1.5793058      -0.64849060       0.25908751
  2155.4900        2.7872934        1.6091269        2.7677876        1.5896236      -0.68356358       -1.0799084
  2155.5900        2.6992396        1.6205715        2.6784249        1.5997592      -0.86447228      -0.59963486
  2155.6900        2.6143989        1.6318349        2.5922753        1.6097135      -0.80349055       0.53401444
  2155.7900        2.5385415        1.6429181        2.5151089        1.6194878      -0.75766940       0.22967146
  2155.8900        2.4628650        1.6538223        2.4381235        1.6290830      -0.75755626       0.16065689
  2155.9900        2.3870302        1.6645486        2.3609798        1.6385003      -0.72553802      -0.11313865
  2156.0900        2.3177574        1.6750980        2.2903980        1.6477406      -0.78018399       0.22118607
  2156.1900        2.2309934        1.6854716        2.2023251        1.6568052      -0.68130081       0.83666033
  2156.2900        2.1814973        1.6956704        2.1515200        1.6656951      -0.61285192      -0.91076615E-01
  2156.3900        2.1084230        1.7056957        2.0771368        1.6744113      -0.69951613      -0.38749988
  2156.4900        2.0415940        1.7155483        2.0089989        1.6829549      -0.69035190       0.61660566
  2156.5900        1.9703526        1.7252295        1.9364485        1.6913271      -0.57619500        1.0776457
  2156.6900        1.9263550        1.7347402        1.8911420        1.6995288      -0.47482277       0.57135019E-01
  2156.7900        1.8753881        1.7440816        1.8388661        1.7075612      -0.56476799       0.13010945
  2156.8900        1.8134014        1.7532548        1.7755704        1.7154254      -0.44880088        1.0499267
  2156.9900        1.7856279        1.7622608        1.7464879        1.7231224      -0.35478266       0.43105827
  2157.0900        1.7424449        1.7711007        1.7019960        1.7306533      -0.36258922       0.67883191E-01
  2157.1900        1.7131101        1.7797755        1.6713522        1.7380191      -0.34120602      -0.37392325
  2157.2900        1.6742037        1.7882865        1.6311368        1.7452210      -0.43737387       0.94470775E-01
  2157.3900        1.6256353        1.7966345        1.5812594        1.7522601      -0.32231186        1.2428281
  2157.4900        1.6097413        1.8048208        1.5640565        1.7591374      -0.18880825       0.56343049
  2157.5900        1.5878736        1.8128464        1.5408798        1.7658539      -0.20962576       0.13520069
  2157.6900        1.5678162        1.8207123        1.5195134        1.7724109      -0.16176811       0.12218974
  2157.7900        1.5555200        1.8284197        1.5059082        1.7788092      -0.18518782       0.20930651E-01
  2157.8900        1.5307786        1.8359696        1.4798578        1.7850502      -0.15758198       0.64036477
  2157.9900        1.5240036        1.8433632        1.4717738        1.7911347      -0.57114861E-01  -0.28114955
  2158.0900        1.5193556        1.8506014        1.4658168        1.7970639      -0.21381189      -0.77952531
  2158.1900        1.4812412        1.8576853        1.4263935        1.8028389      -0.21301992       0.36543785
  2158.2900        1.4767517        1.8646161        1.4205949        1.8084607      -0.14072433       0.45312030
  2158.3900        1.4530964        1.8713949        1.3956306        1.8139304      -0.12239586       0.26474445
  2158.4900        1.4522725        1.8780226        1.3934977        1.8192491      -0.87775436E-01   0.18441600
  2158.5900        1.4355413        1.8845004        1.3754575        1.8244179      -0.85512663E-01   0.67317498E-01
  2158.6900        1.4351699        1.8908294        1.3737772        1.8294379      -0.74311936E-01   0.49667868
  2158.7900        1.4206789        1.8970106        1.3579771        1.8343100       0.13823074E-01   0.56965311
  2158.8900        1.4379346        1.9030451        1.3739238        1.8390355       0.39618687E-01  -0.19403279
  2158.9900        1.4286026        1.9089339        1.3632829        1.8436154      -0.24983484E-01   0.98996321E-01
  2159.0900        1.4329379        1.9146783        1.3663091        1.8480508       0.59417951E-01   0.17366783
  2159.1900        1.4404862        1.9202792        1.3725484        1.8523426       0.97500823E-02  -0.84797420
  2159.2900        1.4348879        1.9257377        1.3656411        1.8564922      -0.11017689       0.15160579
  2159.3900        1.4184509        1.9310549        1.3478951        1.8605004       0.40071241E-01    1.0991420
  2159.4900        1.4429021        1.9362319        1.3710373        1.8643684       0.10965151       0.10408756
  2159.5900        1.4403812        1.9412698        1.3672073        1.8680972       0.60888753E-01  -0.55437940E-01
  2159.6900        1.4550799        1.9461696        1.3805970        1.8716880       0.98563924E-01  -0.33828457
  2159.7900        1.4600939        1.9509324        1.3843021        1.8751418      -0.67681610E-02  -0.36204369E-01
  2159.8900        1.4537262        1.9555593        1.3766254        1.8784597       0.91323051E-01   0.83609464
  2159.9900        1.4783585        1.9600514        1.3999487        1.8816428       0.16045077       0.19063863
  2160.0900        1.4858164        1.9644097        1.4060975        1.8846921       0.12945078      -0.28624079
  2160.1900        1.5042487        1.9686353        1.4232208        1.8876087       0.10320261      -0.21270067
  2160.2900        1.5064569        1.9727294        1.4241200        1.8903938       0.86910643E-01   0.22571161
  2160.3900        1.5216308        1.9766929        1.4379849        1.8930483       0.14834493       0.20874081
  2160.4900        1.5361259        1.9805270        1.4511709        1.8955734       0.12865881      -0.14708025E-02
  2160.9900        1.5988261        1.9977936        1.5073261        1.9062950       0.14746245       0.37584660E-01
  2161.4900        1.6835884        2.0119860        1.5855432        1.9139423       0.16624347      -0.82364939E-02
  2161.9900        1.7650696        2.0232389        1.6604793        1.9186502       0.13922596      -0.81731362E-01
  2162.4900        1.8228143        2.0316871        1.7116790        1.9205534       0.84512104E-01  -0.99788291E-01
  2162.9900        1.8495817        2.0374654        1.7319013        1.9197867       0.39437665E-01  -0.69897059E-01
  2163.4900        1.8622520        2.0407086        1.7380266        1.9164848       0.14615044E-01  -0.13870799E-01
  2163.9900        1.8641967        2.0415514        1.7334263        1.9107826       0.25566866E-01   0.71299979E-01
  2164.4900        1.8878188        2.0401287        1.7505033        1.9028148       0.85915023E-01   0.82093406E-01
  2164.9900        1.9501118        2.0365751        1.8062512        1.8927162       0.10766027      -0.13961310E-01
  2165.4900        1.9954791        2.0310255        1.8450735        1.8806216       0.71953713E-01  -0.28850356E-01
  2165.9900        2.0220655        2.0236146        1.8651147        1.8666657       0.78809916E-01   0.37313128E-01
  2166.4900        2.0742890        2.0144773        1.9107932        1.8509833       0.10926684       0.94583913E-02
  2166.9900        2.1313323        2.0037483        1.9612914        1.8337093       0.88268307E-01  -0.60845967E-01
  2167.4900        2.1625573        1.9915623        1.9859714        1.8149783       0.48420874E-01  -0.38648164E-01
  2167.9900        2.1797532        1.9780542        1.9966222        1.7949251       0.49620143E-01   0.22152548E-01
  2168.4900        2.2121775        1.9633587        2.0225015        1.7736846       0.70573422E-01  -0.22401453E-02
  2168.9900        2.2503266        1.9476106        2.0541055        1.7513915       0.47379998E-01  -0.81595596E-01
  2169.4900        2.2595575        1.9309447        2.0567913        1.7281805      -0.11022174E-01  -0.10229997
  2169.9900        2.2393044        1.9134957        2.0299933        1.7041865      -0.54919971E-01  -0.41499258E-01
  2170.4900        2.2046375        1.8953985        1.9887814        1.6795443      -0.52521432E-01  -0.22220431E-01
  2170.9900        2.1867830        1.8767878        1.9643818        1.6543885      -0.77140403E-01  -0.45164950E-01
  2171.4900        2.1274971        1.8577983        1.8985510        1.6288540      -0.97686382E-01   0.60189763E-02
  2171.9900        2.0890966        1.8385649        1.8536055        1.6030756      -0.71121426E-01   0.15228463E-01
  2172.4900        2.0563757        1.8192224        1.8143395        1.5771880      -0.82457919E-01  -0.34801449E-01
  2172.9900        2.0066387        1.7999054        1.7580576        1.5513261      -0.10592288      -0.15681017E-01
  2173.4900        1.9504528        1.7807489        1.6953267        1.5256245      -0.98138937E-01  -0.64262755E-02
  2173.9900        1.9084998        1.7618875        1.6468287        1.5002180      -0.11234915      -0.35502909E-01
  2174.4900        1.8381037        1.7434560        1.5698876        1.4752415      -0.13364185       0.19346710E-01
  2174.9900        1.7748579        1.7255891        1.5000969        1.4508296      -0.93002442E-01   0.26270795E-01
  2175.4900        1.7451012        1.7083838        1.4637952        1.4270793      -0.10737105      -0.11540143E-01
  2175.9900        1.6674869        1.6918465        1.3796358        1.4039969      -0.10454258       0.38897069E-01
  2176.4900        1.6405586        1.6759704        1.3461626        1.3815759      -0.68473982E-01   0.19143060E-01
  2176.9900        1.5990129        1.6607490        1.2980719        1.3598094      -0.85399524E-01  -0.67430637E-02
  2177.4900        1.5551591        1.6461753        1.2476731        1.3386907      -0.75217046E-01   0.29076634E-01
  2177.9900        1.5237958        1.6322428        1.2097648        1.3182131      -0.56322891E-01   0.30660575E-01
  2178.4900        1.4988362        1.6189445        1.1782602        1.2983698      -0.44556471E-01   0.14323353E-01
  2178.9900        1.4792394        1.6062739        1.1521183        1.2791541      -0.41999537E-01   0.15137952E-01
  2179.4900        1.4568367        1.5942241        1.1231706        1.2605593      -0.29418519E-01   0.19912403E-01
  2179.9900        1.4498208        1.5827884        1.1096098        1.2425786      -0.22087134E-01  -0.38919696E-02
  2180.4900        1.4347495        1.5719601        1.0879935        1.2252053      -0.33310489E-01   0.96167855E-02
  2180.9900        1.4165104        1.5617324        1.0632093        1.2084326      -0.12470349E-01   0.39010207E-01
  2181.4900        1.4222792        1.5520986        1.0624331        1.1922537       0.56997185E-02  -0.51364948E-02
  2181.9900        1.4222101        1.5430520        1.0558189        1.1766621      -0.17606844E-01  -0.11766420E-02
  2182.4900        1.4046723        1.5345858        1.0317362        1.1616508       0.45230765E-02   0.28035758E-01
  2182.9900        1.4267332        1.5266932        1.0472519        1.1472132       0.10428914E-01  -0.99109459E-02
  2183.4900        1.4151013        1.5193676        1.0290750        1.1333425      -0.53878694E-02  -0.83722603E-03
  2183.9900        1.4213453        1.5126021        1.0287740        1.1200321       0.95916882E-02   0.28691962E-01
  2184.4900        1.4246930        1.5063901        1.0255766        1.1072750       0.23304093E-01   0.34846705E-02
  2184.9900        1.4446494        1.5007248        1.0389880        1.0950647       0.13076359E-01  -0.21496344E-01
  2185.4900        1.4377693        1.4955994        1.0255629        1.0833943       0.18077489E-02   0.11766420E-02
  2185.9900        1.4464571        1.4910073        1.0277057        1.0722571       0.14253001E-01   0.19459848E-01
  2186.4900        1.4520223        1.4869417        1.0267258        1.0616465       0.21267597E-01  -0.36656923E-02
  2186.9900        1.4677247        1.4833958        1.0358832        1.0515555       0.10587308E-01  -0.22333570E-01
  2187.4900        1.4626096        1.4803628        1.0242231        1.0419776      -0.10659729E-02  -0.52948889E-02
  2187.9900        1.4666587        1.4778362        1.0217272        1.0329059       0.52924194E-02  -0.15160579E-02
  2188.4900        1.4679020        1.4758091        1.0164254        1.0243337      -0.25820308E-02  -0.13576638E-03
  2188.9900        1.4640767        1.4742747        1.0060551        1.0162544       0.51566530E-02   0.19369337E-01
  2189.4900        1.4730587        1.4732264        1.0084920        1.0086610       0.16787306E-01   0.10635033E-02
  2189.9900        1.4808640        1.4726574        1.0097523        1.0015469       0.62201563E-02  -0.22288315E-01
  2190.4900        1.4792788        1.4725609        1.0016221       0.99490544      -0.55010081E-02  -0.17298900E-01
  2190.9900        1.4753630        1.4729302       0.99116126       0.98872975      -0.11078744E-01   0.21905906E-01
  2191.4900        1.4682001        1.4737586       0.97745332       0.98301313       0.16404898E-01   0.29540502E-01
  2191.9900        1.4917679        1.4750394       0.99447608       0.97774884       0.18461759E-01  -0.46409475E-02
  2192.4900        1.4866619        1.4767657       0.98282500       0.97293014       0.11763950E-01  -0.21677366E-02
  2192.9900        1.5035319        1.4789309       0.99314996       0.96855029       0.16294022E-01  -0.55098524E-02
  2193.4900        1.5029559        1.4815282       0.98602895       0.96460255       0.62540979E-02  -0.14067660E-01
  2193.9900        1.5097860        1.4845508       0.98631399       0.96108017       0.22263619E-02   0.63651806E-02
  2194.4900        1.5051822        1.4879921       0.97516525       0.95797642       0.12619279E-01   0.99652525E-02
  2194.9900        1.5224052        1.4918453       0.98584320       0.95528456       0.12191614E-01  -0.99720408E-02
  2195.4900        1.5173739        1.4961036       0.97426679       0.95299784       0.26472377E-02   0.18041090E-01
  2195.9900        1.5250525        1.5007603       0.97540037       0.95110953       0.30232704E-01   0.24458314E-01
  2196.4900        1.5476066        1.5058087       0.99140941       0.94961287       0.27105552E-01  -0.42021958E-01
  2196.9900        1.5521580        1.5112420       0.98941584       0.94850114      -0.11789254E-01  -0.16583864E-01
  2197.4900        1.5358173        1.5170535       0.96653010       0.94776760       0.10521688E-01   0.46004439E-01
  2197.9900        1.5626797        1.5232364       0.98684746       0.94740549       0.34215184E-01  -0.25501452E-02
  2198.4900        1.5700325        1.5297840       0.98765520       0.94740808       0.79715427E-02  -0.19896563E-01
  2198.9900        1.5706513        1.5366896       0.98172893       0.94776863       0.14318621E-01   0.76029174E-02
  2199.4900        1.5843511        1.5439464       0.98888375       0.94848040       0.15574460E-01  -0.27540211E-01
  2199.9900        1.5862257        1.5515477       0.98421332       0.94953664      -0.13221590E-01  -0.91250094E-02
  2200.4900        1.5711295        1.5594867       0.96257211       0.95093062       0.64494507E-02   0.18026004E-01
  2201.4900        1.5958999        1.5763509       0.97425239       0.95470483       0.13817417E-01   0.45517565E-02
  2202.4900        1.5987644        1.5944853       0.96402679       0.95974909       0.15552964E-01   0.71650709E-02
  2203.4900        1.6270058        1.6138357       0.97917817       0.96600947       0.28147559E-01   0.39372251E-03
  2204.4900        1.6550595        1.6343483       0.99414174       0.97343205       0.16340409E-01  -0.49034292E-02
  2205.4900        1.6596866        1.6559693       0.98567884       0.98196291       0.18340700E-01   0.34388493E-02
  2206.4900        1.6917409        1.6786445        1.0046430       0.99154811       0.23218107E-01  -0.26293423E-02
  2207.4900        1.7061229        1.7023202        1.0059349        1.0021337       0.13082016E-01  -0.20251819E-02
  2208.4900        1.7179049        1.7269424        1.0046269        1.0136658       0.19167744E-01   0.86850886E-02
  2209.4900        1.7444583        1.7524571        1.0180902        1.0260905       0.30452193E-01   0.55613305E-02
  2210.4900        1.7788093        1.7788105        1.0393511        1.0393538       0.30290405E-01  -0.24833934E-03
  2211.4900        1.8050392        1.8059486        1.0524909        1.0534019       0.29955514E-01  -0.26943970E-02
  2212.4900        1.8387203        1.8338174        1.0730819        1.0681807       0.24901611E-01  -0.61937755E-02
  2213.4900        1.8548424        1.8623632        1.0761139        1.0836363       0.17567963E-01   0.24087219E-02
  2214.4900        1.8738562        1.8915318        1.0820377        1.0997149       0.29719054E-01   0.90058367E-02
  2215.4900        1.9142805        1.9212695        1.1093719        1.1163625       0.35579637E-01   0.10239048E-02
  2216.4900        1.9450155        1.9515222        1.1270168        1.1335252       0.31766864E-01  -0.12168062E-02
  2217.4900        1.9778142        1.9822361        1.1467254        1.1511490       0.33146024E-01   0.14538317E-03
  2218.4900        2.0113076        2.0133572        1.1671287        1.1691800       0.32057630E-01  -0.72465307E-03
  2219.4900        2.0419295        2.0448316        1.1846605        1.1875644       0.31696718E-01   0.65620418E-03
  2220.4900        2.0747010        2.0766053        1.2043419        1.2062481       0.33370039E-01   0.72465307E-03
  2221.4900        2.1086695        2.1086246        1.2252204        1.2251772       0.33146024E-01  -0.41635024E-03
  2222.4900        2.1409931        2.1408353        1.2444538        1.2442979       0.32537338E-01   0.15952550E-03
  2223.4900        2.1737442        2.1731836        1.2641149        1.2635561       0.33465075E-01   0.10951822E-02
  2224.4900        2.2079232        2.2056155        1.2852038        1.2828980       0.34727703E-01  -0.28895612E-02
  2225.4900        2.2431996        2.2380772        1.3073901        1.3022697       0.27685953E-01  -0.11172442E-02
  2226.4900        2.2632951        2.2705147        1.3143955        1.3216171       0.32493214E-01  -0.80215305E-03
  2227.4900        2.3081861        2.3028741        1.3461964        1.3408864       0.26081647E-01  -0.84474975E-02
  2228.4900        2.3154584        2.3351014        1.3403786        1.3600237       0.15598219E-01  -0.49215314E-04
  2229.4900        2.3393825        2.3671428        1.3512126        1.3789750       0.25983216E-01   0.97044679E-02
  2230.4900        2.3674248        2.3989443        1.3661649        1.3976864       0.35007155E-01   0.84984099E-02
  2231.4900        2.4093968        2.4304519        1.3950468        1.4161039       0.42980036E-01  -0.56116772E-03
  2232.4900        2.4533849        2.4616117        1.4259448        1.4341738       0.33884820E-01  -0.82387567E-02
  2233.4900        2.4771664        2.4923699        1.4366362        1.4518419       0.26502523E-01  -0.35785756E-02
  2234.4900        2.5063900        2.5226725        1.4527697        1.4690544       0.26727668E-01  -0.51987211E-03
  2235.4900        2.5306218        2.5524655        1.4639114        1.4857574       0.25462778E-01  -0.19324082E-02
  2236.4900        2.5573155        2.5816951        1.4775150        1.5018969       0.22862852E-01   0.33958567E-02
  2237.4900        2.5763475        2.6103073        1.4834569        1.5174190       0.32254492E-01   0.11307077E-01
  2238.4900        2.6218245        2.6382482        1.5158439        1.5322698       0.45477006E-01   0.13222514E-01
