# XDI/1.0 Athena/0.9.26
# Element.edge:                  K
# Element.symbol:                P
# Column.1:                      energy eV
# Column.2:                      norm
# Column.3:                      nbkg
# Column.4:                      flat
# Column.5:                      fbkg
# Column.6:                      nder
# Column.7:                      nsec
# Athena.e0:                     2154
# Athena.eshift:                 0
# Athena.rbkg:                   1.0
# Athena.importance:             1
# Athena.standard:               None
# Athena.bkg_kweight:            2
# Athena.edge_step:              0.2764400
# Athena.fixed_step:             no
# Athena.pre_edge_range:         -20 -10
# Athena.pre_edge_line:          4.633759 - 0.00206833 * E
# Athena.normalization_range:    3429 50
# Athena.post_edge_polynomial:   0.292185 + 7.55938e-005 * E + 0 * E^2 + 0 * E^3
# Athena.spline_range_energy:    0.000 86.616
# Athena.clamps:                 0 24
# Athena.spline_range_k:         0.000 4.768
# Athena.kweight:                2
# Athena.window:                 hanning
# Athena.phase_correction:       no
# Athena.k_range:                2.768 3.000
# Athena.dk:                     1
# Athena.r_range:                1 3
# Athena.dr:                     0.0
# Athena.window:                 hanning
# Athena.plot_multiplier:        1
# Athena.y_offset:               0
# ///
#------------------------
#   e         norm        nbkg        flat        fbkg        nder        nsec
  2125.4600       0.16263238E-01   0.16263239E-01   0.16263239E-01   0.16263239E-01  -0.27733645E-02   0.53176095E-03
  2127.4600       0.10716509E-01   0.10716509E-01   0.10716509E-01   0.10716509E-01  -0.17098426E-02   0.29142851E-03
  2129.4600       0.94238678E-02   0.94238680E-02   0.94238680E-02   0.94238680E-02  -0.16076504E-02   0.63530963E-04
  2131.4600       0.42859074E-02   0.42859076E-02   0.42859076E-02   0.42859076E-02  -0.14557187E-02  -0.18765374E-04
  2133.4600       0.36009929E-02   0.36009930E-02   0.36009930E-02   0.36009930E-02  -0.16827119E-02   0.12367059E-03
  2135.4600      -0.24449402E-02  -0.24449403E-02  -0.24449403E-02  -0.24449403E-02  -0.96103635E-03   0.48812580E-03
  2137.4600      -0.24315254E-03  -0.24315252E-03  -0.24315255E-03  -0.24315252E-03   0.26979128E-03   0.32767809E-03
  2139.4600      -0.13657751E-02  -0.13657751E-02  -0.13657752E-02  -0.13657751E-02   0.34967601E-03   0.13067935E-02
  2140.4600       0.80587547E-03   0.80587552E-03   0.80587549E-03   0.80587552E-03   0.41901717E-02  -0.32104615E-02
  2140.6600       0.36624310E-02   0.36624311E-02   0.36624311E-02   0.36624311E-02  -0.35028778E-02  -0.14970096
  2140.7600      -0.24498786E-03  -0.24498784E-03  -0.24498787E-03  -0.24498784E-03  -0.40720115E-01   0.97429217E-01
  2140.8600      -0.44815920E-02  -0.44815921E-02  -0.44815922E-02  -0.44815921E-02   0.15982966E-01   0.27329619
  2140.9600       0.29516052E-02   0.29516053E-02   0.29516053E-02   0.29516053E-02   0.13939122E-01  -0.18539285
  2141.0600      -0.16937676E-02  -0.16937676E-02  -0.16937676E-02  -0.16937676E-02  -0.21095604E-01  -0.62581390E-01
  2141.1600      -0.12675155E-02  -0.12675155E-02  -0.12675156E-02  -0.12675155E-02   0.14228444E-02   0.12923238
  2141.2600      -0.14091987E-02  -0.14091987E-02  -0.14091987E-02  -0.14091987E-02   0.47508720E-02   0.58602227E-01
  2141.3600      -0.31734113E-03  -0.31734111E-03  -0.31734114E-03  -0.31734111E-03   0.13143290E-01   0.22699319E-01
  2141.4600       0.12194593E-02   0.12194593E-02   0.12194593E-02   0.12194593E-02   0.92907359E-02  -0.15012299E-01
  2141.5600       0.15408061E-02   0.15408061E-02   0.15408061E-02   0.15408061E-02   0.10140830E-01  -0.13212632
  2141.6600       0.32476252E-02   0.32476254E-02   0.32476253E-02   0.32476254E-02  -0.17134527E-01  -0.13357329
  2141.7600      -0.18860994E-02  -0.18860995E-02  -0.18860995E-02  -0.18860995E-02  -0.16573827E-01   0.11141658
  2141.8600      -0.67140182E-04  -0.67140156E-04  -0.67140184E-04  -0.67140156E-04   0.51487884E-02   0.98755604E-01
  2141.9600      -0.85634176E-03  -0.85634175E-03  -0.85634178E-03  -0.85634175E-03   0.31772937E-02  -0.38887280E-01
  2142.0600       0.56831857E-03   0.56831861E-03   0.56831858E-03   0.56831861E-03  -0.26286676E-02  -0.61857906E-01
  2142.1600      -0.13820753E-02  -0.13820753E-02  -0.13820753E-02  -0.13820753E-02  -0.91942875E-02   0.39701200E-01
  2142.2600      -0.12705389E-02  -0.12705389E-02  -0.12705390E-02  -0.12705389E-02   0.53115724E-02   0.57788307E-01
  2142.3600      -0.31976081E-03  -0.31976079E-03  -0.31976082E-03  -0.31976079E-03   0.23633739E-02  -0.50101286E-01
  2142.4600      -0.79786414E-03  -0.79786414E-03  -0.79786417E-03  -0.79786414E-03  -0.47086849E-02  -0.57878742E-02
  2142.5600      -0.12614978E-02  -0.12614978E-02  -0.12614978E-02  -0.12614978E-02   0.12057991E-02   0.85009403E-02
  2142.6600      -0.55670433E-03  -0.55670432E-03  -0.55670435E-03  -0.55670432E-03  -0.30084969E-02  -0.42504702E-01
  2142.7600      -0.18631972E-02  -0.18631972E-02  -0.18631972E-02  -0.18631972E-02  -0.72951412E-02  -0.37440312E-01
  2142.8600      -0.20157326E-02  -0.20157326E-02  -0.20157326E-02  -0.20157326E-02  -0.10496559E-01   0.94233828E-01
  2142.9600      -0.39625090E-02  -0.39625091E-02  -0.39625091E-02  -0.39625091E-02   0.11551624E-01   0.16178917
  2143.0600       0.29459228E-03   0.29459232E-03   0.29459229E-03   0.29459232E-03   0.21861275E-01  -0.97670378E-01
  2143.1600       0.40974606E-03   0.40974610E-03   0.40974607E-03   0.40974610E-03  -0.79824513E-02  -0.93148601E-02
  2143.2600      -0.13018980E-02  -0.13018980E-02  -0.13018980E-02  -0.13018980E-02   0.19998303E-01   0.23422804E-01
  2143.3600       0.44094067E-02   0.44094069E-02   0.44094068E-02   0.44094069E-02  -0.32978906E-02  -0.23929243
  2143.4600      -0.19614761E-02  -0.19614761E-02  -0.19614761E-02  -0.19614761E-02  -0.27860182E-01   0.19099985
  2143.5600      -0.11626297E-02  -0.11626297E-02  -0.11626297E-02  -0.11626297E-02   0.34902079E-01   0.22862103
  2143.6600       0.50189398E-02   0.50189400E-02   0.50189399E-02   0.50189400E-02   0.17864025E-01  -0.34899073
  2143.7600       0.24101753E-02   0.24101753E-02   0.24101753E-02   0.24101753E-02  -0.34896067E-01  -0.72348428E-03
  2143.8600      -0.19602735E-02  -0.19602735E-02  -0.19602736E-02  -0.19602735E-02   0.17719328E-01   0.19470771
  2143.9600       0.59540408E-02   0.59540410E-02   0.59540410E-02   0.59540410E-02   0.40454749E-02  -0.14804297
  2144.0600      -0.11511785E-02  -0.11511785E-02  -0.11511786E-02  -0.11511785E-02  -0.11889266E-01   0.14107943
  2144.1600       0.35761875E-02   0.35761877E-02   0.35761876E-02   0.35761877E-02   0.32261362E-01   0.10526696
  2144.2600       0.53010938E-02   0.53010940E-02   0.53010940E-02   0.53010940E-02   0.91641262E-02  -0.19099985
  2144.3600       0.54090128E-02   0.54090129E-02   0.54090129E-02   0.54090129E-02  -0.59386082E-02  -0.36264650E-01
  2144.4600       0.41133722E-02   0.41133723E-02   0.41133723E-02   0.41133723E-02   0.19111962E-02   0.49739544E-01
  2144.5600       0.57912520E-02   0.57912522E-02   0.57912522E-02   0.57912522E-02   0.40093007E-02  -0.14062726
  2144.6600       0.49152323E-02   0.49152325E-02   0.49152325E-02   0.49152325E-02  -0.26214255E-01   0.19986253E-01
  2144.7600       0.54840098E-03   0.54840102E-03   0.54840099E-03   0.54840102E-03   0.80065513E-02   0.25349080
  2144.8600       0.65165426E-02   0.65165428E-02   0.65165428E-02   0.65165428E-02   0.24483906E-01  -0.58511791E-01
  2144.9600       0.54451821E-02   0.54451823E-02   0.54451823E-02   0.54451823E-02  -0.36958069E-02  -0.17589712
  2145.0600       0.57773812E-02   0.57773814E-02   0.57773814E-02   0.57773814E-02  -0.10695517E-01   0.30024598E-01
  2145.1600       0.33060787E-02   0.33060788E-02   0.33060788E-02   0.33060788E-02   0.23091126E-02   0.12344451
  2145.2600       0.62392037E-02   0.62392039E-02   0.62392039E-02   0.62392039E-02   0.13993384E-01  -0.39610764E-01
  2145.3600       0.61047554E-02   0.61047556E-02   0.61047556E-02   0.61047556E-02  -0.56130403E-02  -0.28939371E-01
  2145.4600       0.51165957E-02   0.51165958E-02   0.51165958E-02   0.51165958E-02   0.82055095E-02   0.41690782E-01
  2145.5600       0.77458573E-02   0.77458575E-02   0.77458575E-02   0.77458575E-02   0.27251161E-02  -0.10580958
  2145.6600       0.56616189E-02   0.56616191E-02   0.56616190E-02   0.56616191E-02  -0.12956406E-01   0.11901316
  2145.7600       0.51545762E-02   0.51545763E-02   0.51545763E-02   0.51545763E-02   0.26527749E-01   0.81482417E-01
  2145.8600       0.10967169E-01   0.10967169E-01   0.10967169E-01   0.10967169E-01   0.33400777E-02  -0.21243307
  2145.9600       0.58225917E-02   0.58225919E-02   0.58225919E-02   0.58225919E-02  -0.15958865E-01   0.15735783
  2146.0600       0.77753956E-02   0.77753958E-02   0.77753958E-02   0.77753958E-02   0.34811644E-01   0.26072565
  2146.1600       0.12784920E-01   0.12784921E-01   0.12784921E-01   0.12784921E-01   0.36186264E-01  -0.27754666
  2146.2600       0.15012648E-01   0.15012649E-01   0.15012649E-01   0.15012649E-01  -0.20697688E-01  -0.25041600
  2146.3600       0.86453830E-02   0.86453832E-02   0.86453832E-02   0.86453832E-02  -0.13896935E-01   0.26126826
  2146.4600       0.12233261E-01   0.12233262E-01   0.12233262E-01   0.12233262E-01   0.31555965E-01   0.24408551
  2146.5600       0.14956576E-01   0.14956576E-01   0.14956576E-01   0.14956576E-01   0.34920167E-01  -0.10734698
  2146.6600       0.19217295E-01   0.19217295E-01   0.19217295E-01   0.19217295E-01   0.10086569E-01  -0.20149037
  2146.7600       0.16973890E-01   0.16973890E-01   0.16973890E-01   0.16973890E-01  -0.53779079E-02   0.84466790E-01
  2146.8600       0.18141713E-01   0.18141714E-01   0.18141714E-01   0.18141714E-01   0.26979927E-01   0.11792794
  2146.9600       0.22369875E-01   0.22369876E-01   0.22369876E-01   0.22369876E-01   0.18207680E-01   0.10128780E-01
  2147.0600       0.21783249E-01   0.21783250E-01   0.21783250E-01   0.21783250E-01   0.29005683E-01   0.18494067
  2147.1600       0.28171011E-01   0.28171012E-01   0.28171012E-01   0.28171012E-01   0.55195814E-01  -0.15509694
  2147.2600       0.32822412E-01   0.32822413E-01   0.32822413E-01   0.32822413E-01  -0.20137060E-02  -0.35658731
  2147.3600       0.27768270E-01   0.27768271E-01   0.27768271E-01   0.27768271E-01  -0.16121649E-01   0.20917739
  2147.4600       0.29598082E-01   0.29598083E-01   0.29598083E-01   0.29598083E-01   0.39821773E-01   0.19534076
  2147.5600       0.35732625E-01   0.35732626E-01   0.35732626E-01   0.35732626E-01   0.22946502E-01  -0.53718708E-01
  2147.6600       0.34187382E-01   0.34187383E-01   0.34187383E-01   0.34187383E-01   0.29078031E-01  -0.43228186E-01
  2147.7600       0.41548231E-01   0.41548232E-01   0.41548232E-01   0.41548232E-01   0.14300865E-01  -0.61677035E-01
  2147.8600       0.37047555E-01   0.37047556E-01   0.37047556E-01   0.37047556E-01   0.16742624E-01   0.28460063
  2147.9600       0.44896756E-01   0.44896757E-01   0.44896757E-01   0.44896757E-01   0.71220990E-01  -0.51367384E-01
  2148.0600       0.51291753E-01   0.51291755E-01   0.51291754E-01   0.51291755E-01   0.64691472E-02  -0.23495152
  2148.1600       0.46190585E-01   0.46190586E-01   0.46190586E-01   0.46190586E-01   0.24230686E-01   0.20266603
  2148.2600       0.56137890E-01   0.56137892E-01   0.56137892E-01   0.56137892E-01   0.47002354E-01  -0.45941252E-01
  2148.3600       0.55591056E-01   0.55591058E-01   0.55591058E-01   0.55591058E-01   0.15042436E-01   0.17065185
  2148.4600       0.59146378E-01   0.59146379E-01   0.59146379E-01   0.59146379E-01   0.81132725E-01   0.25358124
  2148.5600       0.71817601E-01   0.71817603E-01   0.71817603E-01   0.71817603E-01   0.65758684E-01  -0.26805093
  2148.6600       0.72298114E-01   0.72298116E-01   0.72298116E-01   0.72298116E-01   0.27522540E-01  -0.15283605E-01
  2148.7600       0.77322109E-01   0.77322111E-01   0.77322111E-01   0.77322111E-01   0.62701963E-01   0.96494716E-01
  2148.8600       0.84838507E-01   0.84838509E-01   0.84838509E-01   0.84838509E-01   0.46821483E-01   0.94324263E-01
  2148.9600       0.86686406E-01   0.86686408E-01   0.86686408E-01   0.86686408E-01   0.81566816E-01   0.30540080
  2149.0600       0.10115187       0.10115187       0.10115187       0.10115187       0.10790164      -0.26588047E-01
  2149.1600       0.10826673       0.10826674       0.10826674       0.10826674       0.76249206E-01  -0.94866876E-01
  2149.2600       0.11640171       0.11640171       0.11640171       0.11640171       0.88928268E-01   0.16757705
  2149.3600       0.12605239       0.12605239       0.12605239       0.12605239       0.10976462       0.17426928
  2149.4600       0.13835463       0.13835464       0.13835464       0.13835464       0.12378212       0.21948704
  2149.5600       0.15080881       0.15080882       0.15080882       0.15080882       0.15366202       0.20067645
  2149.6600       0.16908704       0.16908704       0.16908704       0.16908704       0.16391741       0.19696860
  2149.7600       0.18359230       0.18359230       0.18359230       0.18359230       0.19305574       0.43535667
  2149.8600       0.20769819       0.20769819       0.20769819       0.20769819       0.25098875       0.32963753
  2149.9600       0.23379004       0.23379005       0.23379005       0.23379005       0.25898325       0.47948921
  2150.0600       0.25949484       0.25949484       0.25949484       0.25949484       0.34688659       0.98185860
  2150.1600       0.30316736       0.30316737       0.30316737       0.30316737       0.45535497       0.84322093
  2150.2600       0.35056583       0.35056584       0.35056584       0.35056584       0.51553077        1.1096440
  2150.3600       0.40627352       0.40627353       0.40627353       0.40627353       0.67728377        1.4833236
  2150.4600       0.48602259       0.48602260       0.48602260       0.48602260       0.81219550        1.1543192
  2150.5600       0.56871262       0.56871263       0.56871263       0.56871263       0.90814761        1.1285450
  2150.6600       0.66765211       0.66765213       0.66765213       0.66765213        1.0379045        1.3173744
  2150.7600       0.77629352       0.77629354       0.77629354       0.77629354        1.1716225        1.5905802
  2150.8600       0.90197661       0.90197663       0.90197663       0.90197663        1.3560206        1.4286101
  2150.9600        1.0474976        1.0474977        1.0474977        1.0474977        1.4573445        1.5797279
  2151.0600        1.1934455        1.1934455        1.1934455        1.1934455        1.6719661        2.7788127
  2151.1600        1.3818909        1.3818909        1.3818909        1.3818909        2.0131071        3.6013239
  2151.2600        1.5960669        1.5960670        1.5960670        1.5960670        2.3922309        4.8595535
  2151.3600        1.8603370        1.8603371        1.8603371        1.8603371        2.9850178        5.8111162
  2151.4600        2.1930705        2.1930705        2.1930705        2.1930705        3.5544541        5.2161408
  2151.5600        2.5712279        2.5712279        2.5712279        2.5712279        4.0282459        5.3649977
  2151.6600        2.9987197        2.9987197        2.9987197        2.9987197        4.6274537        5.1484950
  2151.7600        3.4967186        3.4967187        3.4967187        3.4967187        5.0579449        1.6731478
  2151.8600        4.0103086        4.0103087        4.0103087        4.0103087        4.9620833       -2.3350455
  2151.9600        4.4891353        4.4891354        4.4891354        4.4891354        4.5909358       -6.0076326
  2152.0600        4.9284958        4.9284959        4.9284959        4.9284959        3.7605567       -9.4297132
  2152.1600        5.2412466        5.2412467        5.2412467        5.2412467        2.7049932       -9.4333307
  2152.2600        5.4694944        5.4694946        5.4694946        5.4694946        1.8738906       -7.5685499
  2152.3600        5.6160247        5.6160249        5.6160249        5.6160249        1.1912832       -7.1851033
  2152.4600        5.7077511        5.7077512        5.7077512        5.7077512       0.43686995       -7.0232237
  2152.5600        5.7033987        5.7033989        5.7033989        5.7033989      -0.21336155       -4.9911372
  2152.6600        5.6650788        5.6650789        5.6650789        5.6650789      -0.56135749       -5.9597018
  2152.7600        5.5911272        5.5911274        5.5911274        5.5911274       -1.4053019       -6.6641946
  2152.8600        5.3840184        5.3840185        5.3840185        5.3840185       -1.8941964       -4.1591303
  2152.9600        5.2122879        5.2122881        5.2122881        5.2122881       -2.2371280       -3.2095571
  2153.0600        4.9365928        4.9365929        4.9365929        4.9365929       -2.5361078       -1.0318695
  2153.1600        4.7050664        4.7050665        4.7050665        4.7050665       -2.4435018       0.43770799
  2153.2600        4.4478924        4.4478925        4.4478925        4.4478925       -2.4485662      -0.47749963
  2153.3600        4.2153531        4.2153532        4.2153532        4.2153532       -2.5390018      -0.49920415
  2153.4600        3.9400921        3.9400922        3.9400922        3.9400922       -2.5484071       0.73343219
  2153.5600        3.7056717        3.7056718        3.7056718        3.7056718       -2.3923153        1.5500651
  2153.6600        3.4616290        3.4616291        3.4616291        3.4616291       -2.2383941        1.9362248
  2153.7600        3.2579929        3.2579930        3.2579930        3.2579930       -2.0050704        2.5455794
  2153.8600        3.0606149        3.0606150        3.0606150        3.0606150       -1.7292782        2.9110294
  2153.9600        2.9121373        2.9121373        2.9124475        2.9124475       -1.4228645        2.0539719
  2154.0600        2.7760420        1.0026526        2.7755767        1.0021873       -1.3184838       0.97534725
  2154.1600        2.6484405        1.0121292        2.6471997        1.0108883       -1.2277950        1.4095283
  2154.2600        2.5304830        1.0214633        2.5284666        1.0194468       -1.0365781        1.5911228
  2154.3600        2.4411249        1.0306557        2.4383329        1.0278637      -0.90957048       0.73126174
  2154.4600        2.3485689        1.0397071        2.3450014        1.0361396      -0.89032579        1.2327268
  2154.5600        2.2630597        1.0486185        2.2587167        1.0442754      -0.66302512        1.7813087
  2154.6600        2.2159639        1.0573905        2.2108453        1.0522719      -0.53406405       0.52552089
  2154.7600        2.1562469        1.0660240        2.1503528        1.0601298      -0.55792094       0.21252351
  2154.8600        2.1043797        1.0745198        2.0977100        1.0678501      -0.49155934       0.26425263
  2154.9600        2.0579350        1.0828786        2.0504898        1.0754334      -0.50507041      -0.56250903E-01
  2155.0600        2.0033656        1.0911014        1.9951449        1.0828805      -0.50280953       0.12055057
  2155.1600        1.9573731        1.0991887        1.9483768        1.0901923      -0.48096030      -0.36807263
  2155.2600        1.9071736        1.1071415        1.8974017        1.0973696      -0.57642405       0.28487194E-01
  2155.3600        1.8420883        1.1149606        1.8315409        1.1044131      -0.47526286       0.90670668
  2155.4600        1.8121210        1.1226467        1.8007980        1.1113236      -0.39508272      -0.12923238
  2155.5600        1.7630718        1.1302006        1.7509733        1.1181020      -0.50110934      -0.82866081
  2155.6600        1.7118991        1.1376231        1.6990251        1.1247490      -0.56081488       0.16839097
  2155.7600        1.6509088        1.1449151        1.6372592        1.1312655      -0.46743114       0.78362391
  2155.8600        1.6184129        1.1520773        1.6039877        1.1376521      -0.40409010       0.37268484
  2155.9600        1.5700908        1.1591105        1.5548901        1.1439098      -0.39289418       0.13637679
  2156.0600        1.5398341        1.1660156        1.5238578        1.1500392      -0.37681474      -0.89259873E-01
  2156.1600        1.4947278        1.1727932        1.4779760        1.1560413      -0.41074615      -0.19109029
  2156.2600        1.4576848        1.1794442        1.4401575        1.1619168      -0.41503279       0.11476269
  2156.3600        1.4117213        1.1859694        1.3934184        1.1676665      -0.38779361       0.48093618
  2156.4600        1.3801261        1.1923696        1.3610476        1.1732911      -0.31884556       0.30377296
  2156.5600        1.3479522        1.1986456        1.3280981        1.1787916      -0.32703902      -0.35269859E-02
  2156.6600        1.3147183        1.2047982        1.2940887        1.1841686      -0.31955096       0.44358630
  2156.7600        1.2840420        1.2108281        1.2626369        1.1894230      -0.23832176       0.58611270
  2156.8600        1.2670540        1.2167362        1.2448733        1.1945555      -0.20232842      -0.21505570
  2156.9600        1.2435763        1.2225233        1.2206201        1.1995670      -0.28133290      -0.12335407
  2157.0600        1.2107874        1.2281901        1.1870556        1.2044583      -0.22699923       0.57200476
  2157.1600        1.1981764        1.2337375        1.1736691        1.2092301      -0.16693195       0.14433511
  2157.2600        1.1774010        1.2391662        1.1521181        1.2138833      -0.19813221       0.61315293E-01
  2157.3600        1.1585500        1.2444771        1.1324916        1.2184186      -0.15466889       0.25195340
  2157.4600        1.1464672        1.2496709        1.1196333        1.2228369      -0.14774153      -0.12471060
  2157.5600        1.1290017        1.2547484        1.1013922        1.2271389      -0.17961101      -0.86818114E-01
  2157.6600        1.1105450        1.2597105        1.0821600        1.2313254      -0.16510515       0.49811893
  2157.7600        1.0959807        1.2645578        1.0668201        1.2353972      -0.79987224E-01   0.27546664
  2157.8600        1.0945476        1.2692913        1.0646114        1.2393552      -0.11001182      -0.31326869
  2157.9600        1.0739783        1.2739117        1.0432666        1.2432000      -0.14264096       0.84738096E-01
  2158.0600        1.0660194        1.2784199        1.0345321        1.2469326      -0.93064203E-01   0.25538995
  2158.1600        1.0553655        1.2828165        1.0231027        1.2505536      -0.91562973E-01  -0.64028359E-01
  2158.2600        1.0477068        1.2871024        1.0146684        1.2540640      -0.10586987       0.67736216E-01
  2158.3600        1.0341915        1.2912784        1.0003776        1.2574645      -0.78015730E-01   0.34039935
  2158.4600        1.0321036        1.2953453       0.99751419        1.2607558      -0.37790004E-01  -0.17634929E-01
  2158.5600        1.0266335        1.2993038       0.99126850        1.2639388      -0.81542716E-01  -0.27763709
  2158.6600        1.0157951        1.3031549       0.97965455        1.2670143      -0.93317422E-01  -0.34003761E-01
  2158.7600        1.0079700        1.3068992       0.97105392        1.2699831      -0.88343468E-01   0.37476486
  2158.8600       0.99812640        1.3105375       0.96043476        1.2728459      -0.18364451E-01   0.56856821
  2158.9600        1.0042971        1.3140708       0.96582993        1.2756036       0.25370174E-01   0.14939950
  2159.0600        1.0032004        1.3174997       0.96395770        1.2782569       0.11515450E-01  -0.13592461
  2159.1600        1.0066002        1.3208250       0.96658193        1.2808067      -0.18147478E-02  -0.45832729
  2159.2600        1.0028375        1.3240476       0.96204366        1.2832537      -0.80150008E-01  -0.11485313
  2159.3600       0.99057020        1.3271682       0.94900083        1.2855988      -0.24785374E-01   0.66433944
  2159.4600       0.99788041        1.3301876       0.95553549        1.2878427       0.52717880E-01   0.26660396
  2159.5600        1.0011138        1.3331067       0.95799331        1.2899862       0.28535418E-01  -0.11711402
  2159.6600        1.0035875        1.3359262       0.95969147        1.2920302       0.29295076E-01   0.10951743
  2159.7600        1.0069728        1.3386469       0.96230123        1.2939753       0.50438904E-01  -0.70539717E-02
  2159.8600        1.0136753        1.3412697       0.96822816        1.2958225       0.27884282E-01  -0.30006511
  2159.9600        1.0125496        1.3437952       0.96632699        1.2975725      -0.95741167E-02   0.35152293
  2160.0600        1.0117604        1.3462243       0.96476224        1.2992261       0.98188867E-01   0.56314208
  2160.1600        1.0321874        1.3485579       0.98441367        1.3007841       0.10305430      -0.51466863
  2160.2600        1.0323713        1.3507966       0.98382200        1.3022473      -0.47448591E-02  -0.22654102
  2160.3600        1.0312385        1.3529413       0.98191360        1.3036165       0.57746096E-01   0.50812713
  2160.4600        1.0439205        1.3549928       0.99382013        1.3048924       0.96880566E-01   0.42360005E-01
  2160.9600        1.0893668        1.3638799        1.0353887        1.3099017       0.83162098E-01  -0.22244730E-01
  2161.4600        1.1270826        1.3705557        1.0692267        1.3126998       0.74635836E-01  -0.13970481E-01
  2161.9600        1.1640026        1.3751197        1.1022690        1.3133861       0.69191617E-01  -0.25057878E-01
  2162.4600        1.1962742        1.3776712        1.1306629        1.3120598       0.49577958E-01  -0.38717261E-01
  2162.9600        1.2135806        1.3783095        1.1440915        1.3088203       0.30474356E-01  -0.17931558E-01
  2163.4600        1.2267486        1.3771340        1.1533818        1.3037671       0.31646400E-01   0.13127622E-01
  2163.9600        1.2452270        1.3742441        1.1679824        1.2969995       0.43601978E-01   0.18589929E-01
  2164.4600        1.2703506        1.3697391        1.1892283        1.2886167       0.50236329E-01   0.18948053E-01
  2164.9600        1.2954633        1.3637183        1.2104633        1.2787183       0.62550031E-01   0.23860512E-01
  2165.4600        1.3329006        1.3562812        1.2440228        1.2674034       0.74096840E-01  -0.77159599E-02
  2165.9600        1.3695602        1.3475271        1.2768046        1.2547716       0.54834071E-01  -0.25104905E-01
  2166.4600        1.3877347        1.3375554        1.2911014        1.2409221       0.48991936E-01   0.11662567E-01
  2166.9600        1.4185521        1.3264653        1.3180411        1.2259543       0.66496638E-01   0.16097525E-02
  2167.4600        1.4542313        1.3143563        1.3498426        1.2099675       0.50601688E-01  -0.36004195E-01
  2167.9600        1.4691538        1.3013277        1.3608873        1.1930612       0.30492443E-01  -0.35675010E-01
  2168.4600        1.4847238        1.2874789        1.3725795        1.1753346       0.14926678E-01  -0.31106207E-01
  2168.9600        1.4840805        1.2729092        1.3680585        1.1568872      -0.61376390E-03  -0.23748372E-01
  2169.4600        1.4841100        1.2577180        1.3642103        1.1378182      -0.88216931E-02  -0.19277239E-01
  2169.9600        1.4752588        1.2420046        1.3514813        1.1182271      -0.19891003E-01  -0.24175227E-01
  2170.4600        1.4642190        1.2258684        1.3365638        1.0982132      -0.32996920E-01  -0.30979597E-01
  2170.9600        1.4422618        1.2094088        1.3107289        1.0778758      -0.50870599E-01  -0.27123426E-01
  2171.4600        1.4133484        1.1927251        1.2779377        1.0573144      -0.60120346E-01  -0.24110114E-01
  2171.9600        1.3821415        1.1759166        1.2428531        1.0366282      -0.74980713E-01  -0.23997974E-01
  2172.4600        1.3383677        1.1590828        1.1952015        1.0159166      -0.84118320E-01  -0.44458109E-02
  2172.9600        1.2980232        1.1423230        1.1509793       0.99527903      -0.79426524E-01   0.17363623E-03
  2173.4600        1.2589412        1.1257364        1.1080195       0.97481477      -0.83944683E-01  -0.59361885E-02
  2173.9600        1.2140785        1.1094226        1.0592791       0.95462321      -0.85362713E-01  -0.19642598E-02
  2174.4600        1.1735784        1.0934808        1.0149013       0.93480368      -0.85908943E-01  -0.53429314E-02
  2174.9600        1.1281696        1.0779874       0.96561469       0.91543255      -0.90705644E-01   0.14017508E-01
  2175.4600        1.0828728        1.0629503       0.91644020       0.89651771      -0.71891435E-01   0.26602517E-01
  2175.9600        1.0562781        1.0483647       0.88596777       0.87805434      -0.64103127E-01   0.80668497E-03
  2176.4600        1.0187697        1.0342257       0.84458159       0.86003764      -0.71084750E-01  -0.22138619E-02
  2176.9600       0.98519337        1.0205286       0.80712754       0.84246277      -0.66316989E-01   0.66379683E-02
  2177.4600       0.95245268        1.0072685       0.77050912       0.82532495      -0.64446782E-01   0.14795254E-01
  2177.9600       0.92074658       0.99444067       0.73492528       0.80861934      -0.51521735E-01   0.21382578E-01
  2178.4600       0.90093095       0.98204020       0.71123190       0.79234113      -0.43064204E-01   0.13887281E-01
  2178.9600       0.87768238       0.97006232       0.68410559       0.77648551      -0.37634455E-01   0.19997106E-01
  2179.4600       0.86329649       0.95850222       0.66584197       0.76104767      -0.23067099E-01   0.80198233E-02
  2179.9600       0.85461528       0.94735508       0.65328301       0.74602278      -0.29614631E-01  -0.23621762E-02
  2180.4600       0.83368186       0.93661608       0.62847185       0.73140605      -0.25429275E-01   0.10244537E-01
  2180.9600       0.82918601       0.92628042       0.62009826       0.71719265      -0.19370094E-01   0.14972507E-01
  2181.4600       0.81431177       0.91634327       0.60134628       0.70337776      -0.10456768E-01   0.17128490E-01
  2181.9600       0.81872924       0.90679983       0.60188601       0.68995658      -0.22416035E-02  -0.64462449E-02
  2182.4600       0.81207017       0.89764528       0.59134920       0.67692429      -0.16903012E-01  -0.66596728E-02
  2182.9600       0.80182623       0.88887480       0.57722752       0.66427607      -0.89012763E-02   0.20091158E-01
  2183.4600       0.80316889       0.88048359       0.57469244       0.65200711       0.31881460E-02   0.13178266E-01
  2183.9600       0.80501437       0.87246682       0.57266018       0.64011261       0.42769898E-02  -0.74446533E-02
  2184.4600       0.80744588       0.86481968       0.57121395       0.62858773      -0.42565073E-02  -0.16759513E-01
  2184.9600       0.80075787       0.85753736       0.56064819       0.61742767      -0.12482524E-01   0.85732887E-03
  2185.4600       0.79496336       0.85061505       0.55097594       0.60662762      -0.33991784E-02   0.16144552E-01
  2185.9600       0.79735869       0.84404793       0.54949354       0.59618276       0.36620282E-02   0.78461870E-02
  2186.4600       0.79862538       0.83783118       0.54688249       0.58608827       0.44470086E-02  -0.57914917E-02
  2186.9600       0.80180570       0.83195999       0.54618506       0.57633934      -0.21294635E-02  -0.93474169E-02
  2187.4600       0.79649592       0.82642955       0.53699755       0.56693116      -0.49004083E-02   0.77955431E-02
  2187.9600       0.79690529       0.82123505       0.53352918       0.55785891       0.56660797E-02   0.78642741E-02
  2188.4600       0.80216200       0.81637166       0.53490815       0.54911779       0.29638659E-02  -0.11336999E-01
  2188.9600       0.79986915       0.81183458       0.52873756       0.54070296      -0.56709190E-02  -0.77087250E-02
  2189.4600       0.79649108       0.80761898       0.52148175       0.53260963      -0.47448591E-02   0.17363623E-03
  2189.9600       0.79512429       0.80372006       0.51623722       0.52483297      -0.54972828E-02   0.33967587E-02
  2190.4600       0.79099380       0.80013301       0.50822899       0.51736818      -0.13481004E-02   0.10635219E-02
  2190.9600       0.79377619       0.79685300       0.50713364       0.51021043      -0.44337609E-02  -0.50933293E-02
  2191.4600       0.78656004       0.79387523       0.49603975       0.50335491      -0.64414298E-02   0.64679495E-02
  2191.9600       0.78733476       0.79119487       0.49293673       0.49679682       0.20341886E-02   0.38199970E-02
  2192.4600       0.78859423       0.78880712       0.49031845       0.49053133      -0.26214328E-02  -0.39321371E-02
  2192.9600       0.78471333       0.78670716       0.48255982       0.48455362      -0.18979485E-02   0.10117928E-01
  2193.4600       0.78669628       0.78489017       0.48066502       0.47885890       0.74964949E-02   0.15337867E-02
  2193.9600       0.79220983       0.78335135       0.48230083       0.47344234      -0.36416182E-03  -0.10273477E-01
  2194.4600       0.78633212       0.78208588       0.47254538       0.46829912      -0.27769819E-02   0.39104325E-02
  2194.9600       0.78943284       0.78108894       0.47176837       0.46342444       0.35462707E-02  -0.68731007E-04
  2195.4600       0.78987839       0.78035571       0.46833617       0.45881348      -0.28457129E-02  -0.54333669E-02
  2195.9600       0.78658713       0.77988140       0.46116718       0.45446142      -0.18870962E-02   0.54116624E-02
  2196.4600       0.78799129       0.77966117       0.45869360       0.45036346       0.25659495E-02   0.11297207E-01
  2196.9600       0.78915308       0.77969022       0.45597765       0.44651477       0.94101108E-02  -0.18485023E-02
  2197.4600       0.79740140       0.77996373       0.46034823       0.44291054       0.71744718E-03  -0.14748227E-01
  2197.9600       0.78987053       0.78047690       0.44893962       0.43954596      -0.53381163E-02   0.73940094E-02
  2198.4600       0.79206328       0.78122489       0.44725463       0.43641622       0.81114565E-02   0.15645348E-01
  2198.9600       0.79798198       0.78220291       0.44929559       0.43351649       0.10307231E-01  -0.38344667E-03
  2199.4600       0.80237052       0.78340613       0.44980638       0.43084197       0.77280099E-02  -0.10949935E-01
  2199.9600       0.80570999       0.78482974       0.44926812       0.42838784      -0.64270327E-03  -0.91376065E-02
  2200.4600       0.80172781       0.78646892       0.44140820       0.42614929      -0.14095966E-02   0.25912795E-02
  2201.4600       0.80359560       0.79037477       0.43552051       0.42229966       0.32442160E-02   0.43608015E-02
  2202.4600       0.80821624       0.79508516       0.43238567       0.41925456       0.73120064E-02   0.29147373E-02
  2203.4600       0.81821961       0.80056157       0.43463356       0.41697549       0.90736906E-02  -0.16866227E-02
  2204.4600       0.82636363       0.80676548       0.43502209       0.41542393       0.39387609E-02  -0.32701489E-02
  2205.4600       0.82609713       0.81365840       0.42700012       0.41456136       0.25333927E-02   0.11666184E-02
  2206.4600       0.83143041       0.82120179       0.42457792       0.41434927       0.62719977E-02   0.26931702E-02
  2207.4600       0.83864113       0.82935715       0.42403316       0.41474915       0.79197332E-02   0.13284980E-02
  2208.4600       0.84726988       0.83808596       0.42490642       0.41572249       0.89289938E-02   0.39068151E-03
  2209.4600       0.85649912       0.84734972       0.42638018       0.41723076       0.87010962E-02  -0.10671393E-03
  2210.4600       0.86467207       0.85710989       0.42679766       0.41923546       0.87155659E-02   0.21704528E-04
  2211.4600       0.87393025       0.86732798       0.42830036       0.42169806       0.87445053E-02  -0.12091231E-02
  2212.4600       0.88216108       0.87796547       0.42877571       0.42458007       0.62973197E-02   0.39520329E-03
  2213.4600       0.88652489       0.88898384       0.42538404       0.42784296       0.95349119E-02   0.28071190E-02
  2214.4600       0.90123090       0.90034457       0.43233457       0.43144822       0.11911558E-01   0.17951454E-02
  2215.4600       0.91034800       0.91200917       0.43369619       0.43535733       0.13125203E-01   0.13312111E-02
  2216.4600       0.92748131       0.92393910       0.44307402       0.43953179       0.14573980E-01  -0.57697871E-03
  2217.4600       0.93949596       0.93609587       0.44733319       0.44393307       0.11971245E-01  -0.16386919E-02
  2218.4600       0.95142380       0.94844094       0.45150555       0.44852267       0.11296596E-01  -0.36174214E-03
  2219.4600       0.96208916       0.96093582       0.45441542       0.45326206       0.11247761E-01   0.89531180E-03
  2220.4600       0.97391932       0.97354198       0.45849011       0.45811275       0.13087220E-01  -0.51096077E-03
  2221.4600       0.98826360       0.98622092       0.46507890       0.46303620       0.10225839E-01  -0.14813341E-02
  2222.4600       0.99437100       0.99893411       0.46343083       0.46799391       0.10124552E-01   0.32249312E-02
  2223.4600        1.0085127        1.0116430       0.46981705       0.47294737       0.16675702E-01   0.18475980E-02
  2224.4600        1.0277224        1.0243092       0.48127127       0.47785806       0.13819748E-01  -0.51674865E-02
  2225.4600        1.0361522        1.0368941       0.48194558       0.48268746       0.63407288E-02  -0.20266603E-02
  2226.4600        1.0404039        1.0493592       0.47844177       0.48739706       0.97664268E-02   0.40460858E-02
  2227.4600        1.0556850        1.0616660       0.48596748       0.49194836       0.14432900E-01   0.19262769E-03
  2228.4600        1.0692697        1.0737759       0.49179661       0.49630282       0.10151682E-01  -0.10354869E-02
  2229.4600        1.0759884        1.0856505       0.49075988       0.50042195       0.12361927E-01   0.15790044E-02
  2230.4600        1.0939935        1.0972513       0.50100951       0.50426723       0.13309691E-01  -0.32339747E-02
  2231.4600        1.1026078        1.1085397       0.50186830       0.50780013       0.58939772E-02  -0.24390464E-02
  2232.4600        1.1057815        1.1194772       0.49728650       0.51098216       0.84315983E-02   0.43707494E-02
  2233.4600        1.1194710        1.1300253       0.50322054       0.51377479       0.14635476E-01  -0.42956879E-03
  2234.4600        1.1350524        1.1401455       0.51104649       0.51613951       0.75724607E-02  -0.57046736E-02
  2235.4600        1.1346159        1.1497993       0.50285450       0.51803781       0.32261289E-02   0.27908406E-02
  2236.4600        1.1415047        1.1589481       0.50198779       0.51943117       0.13154142E-01   0.63829401E-02
  2237.4600        1.1609242        1.1675535       0.51365183       0.52028108       0.15992009E-01  -0.29481984E-03
  2238.4600        1.1734887        1.1755769       0.51846085       0.52054903       0.12564502E-01  -0.34275068E-02
