# XDI/1.0 Athena/0.9.26
# Element.edge:                  K
# Element.symbol:                P
# Column.1:                      energy eV
# Column.2:                      norm
# Column.3:                      nbkg
# Column.4:                      flat
# Column.5:                      fbkg
# Column.6:                      nder
# Column.7:                      nsec
# Athena.e0:                     2154
# Athena.eshift:                 0
# Athena.rbkg:                   1.0
# Athena.importance:             1
# Athena.standard:               None
# Athena.bkg_kweight:            2
# Athena.edge_step:              0.3905373
# Athena.fixed_step:             no
# Athena.pre_edge_range:         -25 -10
# Athena.pre_edge_line:          3.365042 - 0.0014789 * E
# Athena.normalization_range:    33 66
# Athena.post_edge_polynomial:   -2.023448 + 0.00120403 * E + 0 * E^2 + 0 * E^3
# Athena.spline_range_energy:    0.000 86.616
# Athena.clamps:                 0 24
# Athena.spline_range_k:         0.000 4.768
# Athena.kweight:                2
# Athena.window:                 hanning
# Athena.phase_correction:       no
# Athena.k_range:                2.768 3.000
# Athena.dk:                     1
# Athena.r_range:                1 3
# Athena.dr:                     0.0
# Athena.window:                 hanning
# Athena.plot_multiplier:        1
# Athena.y_offset:               0
# ///
#------------------------
#   e         norm        nbkg        flat        fbkg        nder        nsec
  2125.4600       0.26889116E-01   0.26889116E-01   0.26889116E-01   0.26889116E-01  -0.10682983E-01   0.27516577E-02
  2127.4600       0.55231493E-02   0.55231494E-02   0.55231494E-02   0.55231494E-02  -0.51796677E-02   0.25648958E-02
  2129.4600       0.61704448E-02   0.61704450E-02   0.61704449E-02   0.61704450E-02  -0.42339992E-03   0.10836033E-02
  2131.4600       0.38295496E-02   0.38295497E-02   0.38295496E-02   0.38295497E-02  -0.84525463E-03  -0.18804221E-03
  2133.4600       0.27894263E-02   0.27894264E-02   0.27894264E-02   0.27894264E-02  -0.11755688E-02  -0.50667375E-03
  2135.4600      -0.87272555E-03  -0.87272554E-03  -0.87272556E-03  -0.87272554E-03  -0.28719496E-02   0.28182327E-03
  2137.4600      -0.86983721E-02  -0.86983722E-02  -0.86983723E-02  -0.86983722E-02  -0.48275709E-04   0.10008647E-02
  2139.4600      -0.10658284E-02  -0.10658284E-02  -0.10658284E-02  -0.10658284E-02   0.11315091E-02  -0.16598926E-02
  2140.4600      -0.53038447E-02  -0.53038447E-02  -0.53038448E-02  -0.53038447E-02  -0.50279536E-02   0.10783576E-01
  2140.6600      -0.70993727E-02  -0.70993728E-02  -0.70993729E-02  -0.70993728E-02   0.14071801E-01   0.44489988E-01
  2140.7600      -0.10823044E-02  -0.10823044E-02  -0.10823044E-02  -0.10823044E-02   0.83190427E-02  -0.11748771
  2140.8600      -0.54355642E-02  -0.54355643E-02  -0.54355643E-02  -0.54355643E-02  -0.94257409E-02  -0.15363449E-02
  2140.9600      -0.29674526E-02  -0.29674526E-02  -0.29674526E-02  -0.29674526E-02   0.80117737E-02   0.92500766E-01
  2141.0600      -0.38332094E-02  -0.38332095E-02  -0.38332095E-02  -0.38332095E-02   0.90744123E-02   0.40777154E-01
  2141.1600      -0.11525701E-02  -0.11525701E-02  -0.11525702E-02  -0.11525701E-02   0.16167205E-01  -0.11714630E-01
  2141.2600      -0.59976852E-03  -0.59976851E-03  -0.59976853E-03  -0.59976851E-03   0.67314863E-02  -0.92116680E-01
  2141.3600       0.19372712E-03   0.19372715E-03   0.19372713E-03   0.19372715E-03  -0.22561314E-02  -0.12598028
  2141.4600      -0.10509948E-02  -0.10509948E-02  -0.10509948E-02  -0.10509948E-02  -0.18464570E-01   0.14659291E-01
  2141.5600      -0.34991869E-02  -0.34991869E-02  -0.34991870E-02  -0.34991869E-02   0.67572683E-03   0.16598926
  2141.6600      -0.91584943E-03  -0.91584942E-03  -0.91584945E-03  -0.91584942E-03   0.14733283E-01   0.71376024E-01
  2141.7600      -0.55253036E-03  -0.55253034E-03  -0.55253036E-03  -0.55253034E-03   0.14950932E-01  -0.57292862E-01
  2141.8600       0.20743369E-02   0.20743369E-02   0.20743369E-02   0.20743369E-02   0.32747103E-02  -0.29657858
  2141.9600       0.10241170E-03   0.10241173E-03   0.10241170E-03   0.10241173E-03  -0.44364785E-01  -0.76817245E-02
  2142.0600      -0.67986200E-02  -0.67986201E-02  -0.67986201E-02  -0.67986201E-02   0.17383654E-02   0.35623997
  2142.1600       0.45008478E-03   0.45008481E-03   0.45008479E-03   0.45008481E-03   0.26883210E-01  -0.73936598E-01
  2142.2600      -0.14219780E-02  -0.14219780E-02  -0.14219780E-02  -0.14219780E-02  -0.13048954E-01  -0.15536288
  2142.3600      -0.21597061E-02  -0.21597061E-02  -0.21597061E-02  -0.21597061E-02  -0.41893654E-02  -0.12354774E-01
  2142.4600      -0.22598511E-02  -0.22598511E-02  -0.22598511E-02  -0.22598511E-02  -0.15519909E-01   0.16349270
  2142.5600      -0.52636879E-02  -0.52636879E-02  -0.52636880E-02  -0.52636879E-02   0.28509175E-01   0.31149393
  2142.6600       0.34419840E-02   0.34419841E-02   0.34419841E-02   0.34419841E-02   0.46778877E-01  -0.14102366
  2142.7600       0.40920875E-02   0.40920876E-02   0.40920875E-02   0.40920876E-02   0.30444347E-03  -0.34522950
  2142.8600       0.35028727E-02   0.35028728E-02   0.35028728E-02   0.35028728E-02  -0.22267024E-01  -0.11778644
  2142.9600      -0.36131727E-03  -0.36131726E-03  -0.36131728E-03  -0.36131726E-03  -0.23252845E-01   0.26591570
  2143.0600      -0.11476963E-02  -0.11476963E-02  -0.11476963E-02  -0.11476963E-02   0.30916116E-01   0.33185050
  2143.1600       0.58219059E-02   0.58219060E-02   0.58219060E-02   0.58219060E-02   0.43117255E-01  -0.29126539
  2143.2600       0.74757547E-02   0.74757548E-02   0.74757548E-02   0.74757548E-02  -0.27336962E-01  -0.26565964
  2143.3600       0.35451348E-03   0.35451351E-03   0.35451348E-03   0.35451351E-03  -0.10014673E-01   0.21560040
  2143.4600       0.54728200E-02   0.54728201E-02   0.54728201E-02   0.54728201E-02   0.15783118E-01  -0.58765193E-01
  2143.5600       0.35111372E-02   0.35111372E-02   0.35111372E-02   0.35111372E-02  -0.21767712E-01  -0.10031052
  2143.6600       0.11192777E-02   0.11192777E-02   0.11192777E-02   0.11192777E-02  -0.42789855E-02   0.17117443
  2143.7600       0.26553401E-02   0.26553401E-02   0.26553401E-02   0.26553401E-02   0.12467174E-01   0.12681247
  2143.8600       0.36127125E-02   0.36127126E-02   0.36127126E-02   0.36127126E-02   0.21083508E-01  -0.20145323
  2143.9600       0.68720417E-02   0.68720418E-02   0.68720418E-02   0.68720418E-02  -0.27823471E-01  -0.11804250
  2144.0600      -0.19519817E-02  -0.19519817E-02  -0.19519818E-02  -0.19519817E-02  -0.25249917E-02   0.42742395
  2144.1600       0.63670434E-02   0.63670435E-02   0.63670435E-02   0.63670435E-02   0.57661320E-01  -0.61453796E-02
  2144.2600       0.95802822E-02   0.95802824E-02   0.95802824E-02   0.95802824E-02  -0.37540676E-02  -0.52824659
  2144.3600       0.56162298E-02   0.56162300E-02   0.56162299E-02   0.56162300E-02  -0.47987998E-01   0.10888844
  2144.4600      -0.17317355E-04  -0.17317330E-04  -0.17317356E-04  -0.17317330E-04   0.18023621E-01   0.56953586
  2144.5600       0.92209541E-02   0.92209543E-02   0.92209543E-02   0.92209543E-02   0.65919174E-01  -0.19389953
  2144.6600       0.13166517E-01   0.13166518E-01   0.13166518E-01   0.13166518E-01  -0.20756285E-01  -0.30694891
  2144.7600       0.50696972E-02   0.50696973E-02   0.50696973E-02   0.50696973E-02   0.45293920E-02   0.26540358
  2144.8600       0.14072396E-01   0.14072396E-01   0.14072396E-01   0.14072396E-01   0.32324432E-01  -0.15229019
  2144.9600       0.11534584E-01   0.11534584E-01   0.11534584E-01   0.11534584E-01  -0.25928646E-01  -0.54540244E-01
  2145.0600       0.88866666E-02   0.88866668E-02   0.88866668E-02   0.88866668E-02   0.21416383E-01   0.34017237
  2145.1600       0.15817860E-01   0.15817860E-01   0.15817860E-01   0.15817860E-01   0.42105828E-01  -0.12975713
  2145.2600       0.17307832E-01   0.17307832E-01   0.17307832E-01   0.17307832E-01  -0.45350430E-02  -0.11612207
  2145.3600       0.14910852E-01   0.14910852E-01   0.14910852E-01   0.14910852E-01   0.18881414E-01   0.22052951
  2145.4600       0.21084115E-01   0.21084115E-01   0.21084115E-01   0.21084115E-01   0.39570859E-01  -0.84434955E-01
  2145.5600       0.22825023E-01   0.22825024E-01   0.22825024E-01   0.22825024E-01   0.19944229E-02  -0.24837576
  2145.6600       0.21483000E-01   0.21483000E-01   0.21483000E-01   0.21483000E-01  -0.10104293E-01  -0.44938088E-01
  2145.7600       0.20804165E-01   0.20804165E-01   0.20804165E-01   0.20804165E-01  -0.69931948E-02   0.40713140E-01
  2145.8600       0.20084361E-01   0.20084361E-01   0.20084361E-01   0.20084361E-01  -0.19616653E-02   0.13980739
  2145.9600       0.20411832E-01   0.20411832E-01   0.20411832E-01   0.20411832E-01   0.20968282E-01   0.17706375
  2146.0600       0.24278017E-01   0.24278017E-01   0.24278017E-01   0.24278017E-01   0.33451085E-01  -0.49355080E-01
  2146.1600       0.27102049E-01   0.27102049E-01   0.27102049E-01   0.27102049E-01   0.11097266E-01  -0.17219866E-01
  2146.2600       0.26497470E-01   0.26497471E-01   0.26497471E-01   0.26497471E-01   0.30007112E-01   0.86483415E-01
  2146.3600       0.33103471E-01   0.33103471E-01   0.33103471E-01   0.33103471E-01   0.28393949E-01  -0.14748911
  2146.4600       0.32176260E-01   0.32176261E-01   0.32176261E-01   0.32176261E-01   0.50928946E-03  -0.55948560E-01
  2146.5600       0.33205329E-01   0.33205329E-01   0.33205329E-01   0.33205329E-01   0.17204237E-01   0.62285983E-01
  2146.6600       0.35617108E-01   0.35617108E-01   0.35617108E-01   0.35617108E-01   0.12966486E-01   0.30918941E-01
  2146.7600       0.35798626E-01   0.35798627E-01   0.35798627E-01   0.35798627E-01   0.23388026E-01   0.39368838E-01
  2146.8600       0.40294713E-01   0.40294714E-01   0.40294713E-01   0.40294714E-01   0.20840254E-01  -0.18762612
  2146.9600       0.39966677E-01   0.39966677E-01   0.39966677E-01   0.39966677E-01  -0.14137199E-01  -0.39560881E-01
  2147.0600       0.37467273E-01   0.37467274E-01   0.37467274E-01   0.37467274E-01   0.12928077E-01   0.32653731
  2147.1600       0.42552292E-01   0.42552293E-01   0.42552293E-01   0.42552293E-01   0.51170263E-01   0.21009517
  2147.2600       0.47701326E-01   0.47701326E-01   0.47701326E-01   0.47701326E-01   0.54947111E-01  -0.89876177E-01
  2147.3600       0.53541714E-01   0.53541715E-01   0.53541715E-01   0.53541715E-01   0.33195027E-01  -0.22302607
  2147.4600       0.54340331E-01   0.54340332E-01   0.54340332E-01   0.54340332E-01   0.10341897E-01  -0.37448407E-01
  2147.5600       0.55610094E-01   0.55610095E-01   0.55610095E-01   0.55610095E-01   0.25705346E-01   0.17943228
  2147.6600       0.59481400E-01   0.59481401E-01   0.59481401E-01   0.59481401E-01   0.46228353E-01   0.12137125
  2147.7600       0.64855764E-01   0.64855765E-01   0.64855765E-01   0.64855765E-01   0.49979595E-01  -0.69327564E-01
  2147.8600       0.69477319E-01   0.69477320E-01   0.69477320E-01   0.69477320E-01   0.32362840E-01  -0.43721815E-01
  2147.9600       0.71328332E-01   0.71328334E-01   0.71328334E-01   0.71328334E-01   0.41235232E-01   0.87955746E-01
  2148.0600       0.77724366E-01   0.77724367E-01   0.77724367E-01   0.77724367E-01   0.49953990E-01   0.79377820E-02
  2148.1600       0.81319130E-01   0.81319132E-01   0.81319132E-01   0.81319132E-01   0.42822789E-01   0.13660667
  2148.2600       0.86288923E-01   0.86288925E-01   0.86288925E-01   0.86288925E-01   0.77275323E-01   0.16778167
  2148.3600       0.96774195E-01   0.96774197E-01   0.96774197E-01   0.96774197E-01   0.76379122E-01  -0.95125355E-01
  2148.4600       0.10156475       0.10156475       0.10156475       0.10156475       0.58250252E-01   0.68495377E-01
  2148.5600       0.10842425       0.10842425       0.10842425       0.10842425       0.90078197E-01   0.73680541E-01
  2148.6600       0.11958039       0.11958039       0.11958039       0.11958039       0.72986360E-01  -0.42857621
  2148.7600       0.12302152       0.12302152       0.12302152       0.12302152       0.43629546E-02   0.27590194E-01
  2148.8600       0.12045298       0.12045298       0.12045298       0.12045298       0.78504399E-01   0.60397559
  2148.9600       0.13872240       0.13872240       0.13872240       0.13872240       0.12515807       0.14684897
  2149.0600       0.14548459       0.14548460       0.14548460       0.14548460       0.10787419       0.11637813
  2149.1600       0.16029724       0.16029724       0.16029724       0.16029724       0.14843370       0.65038601E-01
  2149.2600       0.17517133       0.17517134       0.17517134       0.17517134       0.12088191      -0.17706375
  2149.3600       0.18447362       0.18447362       0.18447362       0.18447362       0.11302095       0.26469942
  2149.4600       0.19777552       0.19777553       0.19777553       0.19777553       0.17382180       0.47805932
  2149.5600       0.21923798       0.21923798       0.21923798       0.21923798       0.20863281       0.28057499
  2149.6600       0.23950208       0.23950209       0.23950209       0.23950209       0.22993679       0.39848946
  2149.7600       0.26522534       0.26522534       0.26522534       0.26522534       0.28833070       0.32199229
  2149.8600       0.29716823       0.29716823       0.29716823       0.29716823       0.29433525       0.29747478
  2149.9600       0.32409239       0.32409239       0.32409239       0.32409239       0.34782566       0.69641234
  2150.0600       0.36673336       0.36673336       0.36673336       0.36673336       0.43361772        1.0623185
  2150.1600       0.41081593       0.41081594       0.41081594       0.41081594       0.56028936        1.5598382
  2150.2600       0.47879123       0.47879124       0.47879124       0.47879124       0.74558536        1.7692292
  2150.3600       0.55993300       0.55993301       0.55993301       0.55993301       0.91413519        1.8411173
  2150.4600       0.66161827       0.66161828       0.66161828       0.66161828        1.1138088        1.7434954
  2150.5600       0.78269477       0.78269478       0.78269478       0.78269478        1.2628343        1.7207063
  2150.6600       0.91418512       0.91418514       0.91418514       0.91418514        1.4579501        2.4779323
  2150.7600        1.0742848        1.0742848        1.0742848        1.0742848        1.7584207        2.7807843
  2150.8600        1.2658693        1.2658693        1.2658693        1.2658693        2.0141069        2.4931677
  2150.9600        1.4771062        1.4771062        1.4771062        1.4771062        2.2570543        3.1660228
  2151.0600        1.7172801        1.7172802        1.7172802        1.7172802        2.6473115        3.7732631
  2151.1600        2.0065685        2.0065685        2.0065685        2.0065685        3.0117069        4.3620673
  2151.2600        2.3196215        2.3196215        2.3196215        2.3196215        3.5197249        8.0087739
  2151.3600        2.7105135        2.7105135        2.7105135        2.7105135        4.6134617        11.327919
  2151.4600        3.2423138        3.2423139        3.2423139        3.2423139        5.7853088        11.011112
  2151.5600        3.8675752        3.8675753        3.8675753        3.8675753        6.8156841        10.276867
  2151.6600        4.6054507        4.6054507        4.6054507        4.6054507        7.8406822        6.8540187
  2151.7600        5.4357116        5.4357117        5.4357117        5.4357117        8.1864878       -1.1304938
  2151.8600        6.2427482        6.2427483        6.2427483        6.2427483        7.6145834       -8.1861578
  2151.9600        6.9586283        6.9586284        6.9586284        6.9586284        6.5492563       -12.827840
  2152.0600        7.5525995        7.5525996        7.5525996        7.5525996        5.0490155       -15.488277
  2152.1600        7.9684314        7.9684315        7.9684315        7.9684315        3.4516008       -16.383838
  2152.2600        8.2429196        8.2429198        8.2429198        8.2429198        1.7722478       -15.650233
  2152.3600        8.3228810        8.3228811        8.3228811        8.3228811       0.32155416       -11.526428
  2152.4600        8.3072305        8.3072306        8.3072306        8.3072306      -0.53303769       -8.6099329
  2152.5600        8.2162734        8.2162736        8.2162736        8.2162736       -1.4004324       -7.8526429
  2152.6600        8.0271440        8.0271441        8.0271441        8.0271441       -2.1035663       -6.4968185
  2152.7600        7.7955602        7.7955603        7.7955603        7.7955603       -2.6997961       -5.7574525
  2152.8600        7.4871848        7.4871849        7.4871849        7.4871849       -3.2550568       -5.0897826
  2152.9600        7.1445488        7.1445490        7.1445490        7.1445490       -3.7177526       -2.5906616
  2153.0600        6.7436342        6.7436343        6.7436343        6.7436343       -3.7731891       0.57612934
  2153.1600        6.3899110        6.3899111        6.3899111        6.3899111       -3.6025268       0.66382903
  2153.2600        6.0231289        6.0231290        6.0231290        6.0231290       -3.6404233        1.5728331
  2153.3600        5.6618264        5.6618265        5.6618265        5.6618265       -3.2879602        3.3703566
  2153.4600        5.3655368        5.3655369        5.3655369        5.3655369       -2.9663520        1.9172304
  2153.5600        5.0685560        5.0685561        5.0685561        5.0685561       -2.9045141        2.1828900
  2153.6600        4.7846340        4.7846341        4.7846341        4.7846341       -2.5297739        4.1334079
  2153.7600        4.5626012        4.5626013        4.5626013        4.5626013       -2.0778325        3.6699439
  2153.8600        4.3690675        4.3690676        4.3690676        4.3690676       -1.7957852        2.7570990
  2153.9600        4.2034441        4.2034442        4.2037190        4.2037190       -1.5264127        2.6341914
  2154.0600        4.0637850        1.7671344        4.0633728        1.7667222       -1.2689469        2.0996714
  2154.1600        3.9496548        1.7776107        3.9485556        1.7765115       -1.1064784        1.5389055
  2154.2600        3.8424893        1.7879147        3.8407032        1.7861285      -0.96116580        1.5414661
  2154.3600        3.7574216        1.7980476        3.7549485        1.7955744      -0.79818521        1.8391329
  2154.4600        3.6828523        1.8080102        3.6796922        1.8048501      -0.59333923        1.3084537
  2154.5600        3.6387538        1.8178036        3.6349067        1.8139565      -0.53649447       0.83154668
  2154.6600        3.5755534        1.8274288        3.5710193        1.8228947      -0.42702989       0.96021556E-01
  2154.7600        3.5533478        1.8368866        3.5481267        1.8316655      -0.51729015       -1.0709604
  2154.8600        3.4720953        1.8461782        3.4661873        1.8402701      -0.64122198       0.13443018E-01
  2154.9600        3.4251034        1.8553044        3.4185084        1.8487093      -0.51460155       0.52811856
  2155.0600        3.3691750        1.8642663        3.3618930        1.8569842      -0.53559826      -0.72848354
  2155.1600        3.3179837        1.8730647        3.3100148        1.8650957      -0.66029826       -1.2252351
  2155.2600        3.2371154        1.8817008        3.2284594        1.8730448      -0.78064528       0.37768479E-01
  2155.3600        3.1618547        1.8901755        3.1525117        1.8808325      -0.65274456       0.96021556E-02
  2155.4600        3.1065665        1.8984897        3.0965365        1.8884597      -0.77872485      -0.57997020
  2155.5600        3.0061097        1.9066445        2.9953928        1.8959275      -0.76873860       0.41033212
  2155.6600        2.9528187        1.9146407        2.9414148        1.9032368      -0.69665842      -0.59085264
  2155.7600        2.8667780        1.9224795        2.8546871        1.9103885      -0.88690913      -0.41737370
  2155.8600        2.7754369        1.9301617        2.7626590        1.9173838      -0.78013316       0.59277307
  2155.9600        2.7107514        1.9376883        2.6972865        1.9242234      -0.76835452      -0.28422381
  2156.0600        2.6217660        1.9450604        2.6076142        1.9309085      -0.83697792      -0.24005389
  2156.1600        2.5433558        1.9522789        2.5285170        1.9374400      -0.81636530       0.56652718
  2156.2600        2.4584930        1.9593448        2.4429671        1.9438189      -0.72367249       0.96597686
  2156.3600        2.3986213        1.9662590        2.3824085        1.9500461      -0.62316992      -0.33735573
  2156.4600        2.3338590        1.9730225        2.3169592        1.9561227      -0.79114363      -0.53067914
  2156.5600        2.2403926        1.9796364        2.2228058        1.9620496      -0.72930575        1.7610353
  2156.6600        2.1879978        1.9861015        2.1697241        1.9678277      -0.43893656       0.88839144
  2156.7600        2.1526053        1.9924189        2.1336445        1.9734582      -0.55162746      -0.91457332
  2156.8600        2.0776723        1.9985896        2.0580246        1.9789418      -0.62185123       0.18544963
  2156.9600        2.0282350        2.0046144        2.0079003        1.9842797      -0.51453754       0.88717517
  2157.0600        1.9747648        2.0104945        1.9537431        1.9894728      -0.44441619       0.80645305
  2157.1600        1.9393518        2.0162307        1.9176431        1.9945220      -0.35324693       0.83545156
  2157.2600        1.9041154        2.0218241        1.8817198        1.9994284      -0.27732588       0.16278855
  2157.3600        1.8838866        2.0272756        1.8608040        2.0041930      -0.32068922      -0.70396604
  2157.4600        1.8399776        2.0325863        1.8162080        2.0088166      -0.41811909      -0.18961057
  2157.5600        1.8002628        2.0377570        1.7758062        2.0133003      -0.35861133       0.64820952
  2157.6600        1.7682553        2.0427887        1.7431117        2.0176451      -0.28847719       0.47287416
  2157.7600        1.7425674        2.0476825        1.7167368        2.0218519      -0.26403650      -0.29011313
  2157.8600        1.7154480        2.0524394        1.6889305        2.0259218      -0.34649981      -0.39304824E-01
  2157.9600        1.6732674        2.0570602        1.6460628        2.0298556      -0.27189746       0.69750059
  2158.0600        1.6610685        2.0615460        1.6331770        2.0336544      -0.20699970       0.24146221
  2158.1600        1.6318675        2.0658977        1.6032889        2.0373192      -0.22360502      -0.11772243
  2158.2600        1.6163475        2.0701164        1.5870820        2.0408509      -0.23054418      -0.47799531
  2158.3600        1.5857586        2.0742030        1.5558061        2.0442504      -0.31920408       0.16835780E-01
  2158.4600        1.5525067        2.0781584        1.5218672        2.0475189      -0.22717703        1.2378459
  2158.5600        1.5403232        2.0819837        1.5089968        2.0506573      -0.71634907E-01   0.19972484
  2158.6600        1.5381797        2.0856799        1.5061663        2.0536664      -0.18723206       -1.0937495
  2158.7600        1.5028768        2.0892479        1.4701764        2.0565474      -0.29038481       0.23141195
  2158.8600        1.4801028        2.0926886        1.4467154        2.0593012      -0.14094967        1.0495156
  2158.9600        1.4746869        2.0960031        1.4406125        2.0619287      -0.80481693E-01   0.39413648
  2159.0600        1.4640064        2.0991924        1.4292450        2.0644310      -0.62122371E-01   0.21060728E-01
  2159.1600        1.4622624        2.1022574        1.4268140        2.0668090      -0.76269547E-01   0.94805283E-01
  2159.2600        1.4487525        2.1051991        1.4126172        2.0690638      -0.43161314E-01   0.29817894
  2159.3600        1.4536301        2.1080185        1.4168078        2.0711962      -0.16633759E-01   0.78865705E-01
  2159.4600        1.4454258        2.1107166        1.4079165        2.0732072      -0.27388173E-01   0.43113679
  2159.5600        1.4481525        2.1132942        1.4099562        2.0750979       0.69593599E-01   0.33761179
  2159.6600        1.4593445        2.1157525        1.4204612        2.0768692       0.40134185E-01  -0.22302607
  2159.7600        1.4561793        2.1180924        1.4166091        2.0785221       0.24988385E-01   0.20523007
  2159.8600        1.4643422        2.1203148        1.4240849        2.0800576       0.81180200E-01   0.38543053
  2159.9600        1.4724154        2.1224208        1.4314711        2.0814766       0.10207449       0.20747058
  2160.0600        1.4847571        2.1244113        1.4431258        2.0827801       0.12267431       0.27935871
  2160.1600        1.4969502        2.1262874        1.4546320        2.0839691       0.15794623       0.26309906E-01
  2160.2600        1.5163463        2.1280499        1.4733411        2.0850446       0.12793630      -0.17085436
  2160.3600        1.5225375        2.1296998        1.4788453        2.0860076       0.12377536       0.10656259
  2160.4600        1.5411014        2.1312382        1.4967222        2.0868590       0.14924881       0.65717153E-01
  2160.9600        1.6120868        2.1372908        1.5642727        2.0894767       0.16320565       0.51474382E-01
  2161.4600        1.7043070        2.1407009        1.6530580        2.0894518       0.20072320       0.40398189E-01
  2161.9600        1.8128100        2.1415906        1.7581261        2.0869066       0.20360384      -0.67217650E-01
  2162.4600        1.9079109        2.1400821        1.8497921        2.0819633       0.13350555      -0.15458190
  2162.9600        1.9463155        2.1362977        1.8847618        2.0747439       0.49021940E-01  -0.13214615
  2163.4600        1.9569328        2.1303595        1.8919442        2.0653708       0.13594003E-02  -0.25032180E-01
  2163.9600        1.9476749        2.1223897        1.8792513        2.0539661       0.23989761E-01   0.84854890E-01
  2164.4600        1.9809226        2.1125105        1.9090641        2.0406520       0.86214290E-01   0.87927579E-01
  2164.9600        2.0338892        2.1008441        1.9585958        2.0255506       0.11191734       0.28419820E-01
  2165.4600        2.0928399        2.0875127        2.0141116        2.0087843       0.11463411      -0.26937247E-02
  2165.9600        2.1485233        2.0726385        2.0663601        1.9904752       0.10922362      -0.20510204E-01
  2166.4600        2.2020635        2.0563436        2.1164654        1.9707454       0.94123906E-01  -0.29362112E-01
  2166.9600        2.2426472        2.0387503        2.1536141        1.9497172       0.79861504E-01  -0.32698541E-01
  2167.4600        2.2819250        2.0199808        2.1894570        1.9275127       0.61425365E-01  -0.35540779E-01
  2167.9600        2.3040726        2.0001572        2.2081697        1.9042542       0.44320725E-01  -0.20715050E-01
  2168.4600        2.3262458        1.9794017        2.2269079        1.8800638       0.40710314E-01  -0.30496446E-01
  2168.9600        2.3447829        1.9578366        2.2420101        1.8550638       0.13824279E-01  -0.66216465E-01
  2169.4600        2.3400700        1.9355840        2.2338624        1.8293762      -0.25506151E-01  -0.70620654E-01
  2169.9600        2.3192768        1.9127661        2.2096342        1.8031234      -0.56796375E-01  -0.85215931E-01
  2170.4600        2.2832737        1.8895051        2.1701961        1.7764275      -0.11072208      -0.64777422E-01
  2170.9600        2.2085547        1.8659232        2.0920422        1.7494107      -0.12157380       0.17478484E-01
  2171.4600        2.1616999        1.8421426        2.0417525        1.7221952      -0.93243598E-01   0.25838761E-01
  2171.9600        2.1153111        1.8182855        1.9919288        1.6949032      -0.95735037E-01  -0.87110756E-02
  2172.4600        2.0659648        1.7944741        1.9391476        1.6676568      -0.10195467      -0.26245892E-01
  2172.9600        2.0133564        1.7708305        1.8831043        1.6405783      -0.12198093      -0.24018192E-01
  2173.4600        1.9439839        1.7474770        1.8102969        1.6137899      -0.12597287      -0.14008905E-01
  2173.9600        1.8873835        1.7245357        1.7502616        1.5874137      -0.13598983      -0.11251166E-01
  2174.4600        1.8079941        1.7021289        1.6674372        1.5615720      -0.13722403       0.16799932E-01
  2174.9600        1.7501595        1.6803502        1.6061677        1.5363584      -0.11918990       0.25913017E-01
  2175.4600        1.6888042        1.6592088        1.5413774        1.5117820      -0.11131101       0.16661660E-01
  2175.9600        1.6388485        1.6386979        1.4879868        1.4878362      -0.10252824       0.30419629E-02
  2176.4600        1.5862759        1.6188108        1.4319793        1.4645142      -0.10826905      -0.46423222E-02
  2176.9600        1.5305794        1.5995410        1.3728480        1.4418095      -0.10717056       0.17245472E-01
  2177.4600        1.4791054        1.5808817        1.3179389        1.4197153      -0.91023579E-01   0.42070245E-01
  2177.9600        1.4395559        1.5628263        1.2749545        1.3982249      -0.65100320E-01   0.35133647E-01
  2178.4600        1.4140050        1.5453681        1.2459688        1.3773318      -0.55889932E-01   0.58304289E-02
  2178.9600        1.3836659        1.5285004        1.2121948        1.3570292      -0.59269891E-01   0.16559237E-01
  2179.4600        1.3547351        1.5122165        1.1798291        1.3373104      -0.39330694E-01   0.30250631E-01
  2179.9600        1.3443352        1.4965098        1.1659942        1.3181688      -0.29019260E-01   0.54873119E-02
  2180.4600        1.3257159        1.4813736        1.1439400        1.2995977      -0.33843383E-01   0.55641291E-02
  2180.9600        1.3104919        1.4668013        1.1252810        1.2815904      -0.23455130E-01   0.14403233E-01
  2181.4600        1.3022608        1.4527861        1.1136150        1.2641403      -0.19440149E-01   0.53259957E-02
  2181.9600        1.2910517        1.4393215        1.0989710        1.2472407      -0.18129135E-01   0.86316978E-02
  2182.4600        1.2841316        1.4264006        1.0886160        1.2308850      -0.10808451E-01   0.18597455E-01
  2182.9600        1.2802433        1.4140169        1.0812927        1.2150663       0.46832026E-03   0.19078843E-01
  2183.4600        1.2845999        1.4021637        1.0822145        1.1997782       0.82703918E-02  -0.72361845E-02
  2183.9600        1.2885136        1.3908342        1.0826933        1.1850139      -0.67678642E-02  -0.11417603E-01
  2184.4600        1.2778321        1.3800220        1.0685768        1.1707667      -0.31472114E-02   0.21649660E-01
  2184.9600        1.2853664        1.3697202        1.0726762        1.1570299       0.14881796E-01   0.12966751E-01
  2185.4600        1.2927139        1.3599221        1.0765887        1.1437970       0.98195396E-02  -0.26097379E-01
  2185.9600        1.2951860        1.3506212        1.0756259        1.1310612      -0.11215583E-01  -0.14851334E-01
  2186.4600        1.2814983        1.3418108        1.0585033        1.1188158      -0.50317945E-02   0.20576779E-01
  2186.9600        1.2901542        1.3334842        1.0637243        1.1070542       0.93611967E-02  -0.18769014E-02
  2187.4600        1.2908595        1.3256346        1.0609947        1.0957698      -0.69086958E-02  -0.15396736E-01
  2187.9600        1.2832455        1.3182555        1.0499458        1.0849557      -0.60355398E-02  -0.14083162E-03
  2188.4600        1.2848239        1.3113402        1.0480893        1.0746055      -0.70495275E-02  -0.45757472E-02
  2188.9600        1.2761960        1.3048819        1.0360264        1.0647123      -0.10611287E-01  -0.38050142E-02
  2189.4600        1.2742127        1.2988741        1.0306082        1.0552696      -0.10854542E-01   0.64552092E-02
  2189.9600        1.2653414        1.2933100        1.0183020        1.0462706      -0.41560779E-02   0.92334329E-02
  2190.4600        1.2700566        1.2881831        1.0195823        1.0377087      -0.16211088E-02   0.17924024E-04
  2190.9600        1.2637203        1.2834865        1.0098111        1.0295772      -0.41381539E-02   0.75921044E-02
  2191.4600        1.2659184        1.2792137        1.0085743        1.0218695       0.59709956E-02   0.60992893E-02
  2191.9600        1.2696913        1.2753579        1.0089122        1.0145788       0.19611354E-02  -0.82604144E-02
  2192.4600        1.2678796        1.2719126        1.0036656        1.0076986      -0.22894188E-02  -0.18938011E-01
  2192.9600        1.2674019        1.2688709       0.99975296        1.0012220      -0.16976876E-01   0.64782543E-02
  2193.4600        1.2509027        1.2662264       0.97981885       0.99514252       0.41888355E-02   0.37110411E-01
  2193.9600        1.2715907        1.2639722       0.99707196       0.98945342       0.20133535E-01   0.22456241E-02
  2194.4600        1.2710362        1.2621017       0.99308254       0.98414803       0.64344596E-02  -0.21421769E-01
  2194.9600        1.2780252        1.2606083       0.99663658       0.97921968      -0.12882341E-02  -0.11637813E-01
  2195.4600        1.2697480        1.2594852       0.98492447       0.97466171      -0.52033530E-02   0.13617137E-01
  2195.9600        1.2728218        1.2587259       0.98456339       0.97046744       0.12328903E-01   0.19695942E-01
  2196.4600        1.2820769        1.2583236       0.99038354       0.96663020       0.14492589E-01  -0.27398151E-02
  2196.9600        1.2873144        1.2582716       0.99218614       0.96314331       0.95890878E-02  -0.15237981E-01
  2197.4600        1.2916660        1.2585633       0.99310278       0.96000012      -0.74539221E-03  -0.14830849E-01
  2197.9600        1.2865690        1.2591921       0.98457091       0.95719394      -0.52417616E-02   0.24939999E-02
  2198.4600        1.2864242        1.2601512       0.98099118       0.95471810       0.17486077E-02   0.84370941E-02
  2198.9600        1.2883176        1.2614339       0.97944968       0.95256594       0.31953325E-02  -0.51595583E-02
  2199.4600        1.2896196        1.2630337       0.97731668       0.95073078      -0.34109506E-02  -0.20330964E-02
  2199.9600        1.2849067        1.2649438       0.96916889       0.94920595       0.11622360E-02   0.10335334E-01
  2200.4600        1.2907818        1.2671575       0.97160907       0.94798479       0.69243830E-02   0.13186960E-02
  2201.4600        1.2952933        1.2724693       0.96925070       0.94642675       0.31402801E-02  -0.51894317E-02
  2202.4600        1.2970623        1.2789157       0.96414996       0.94600330      -0.34544804E-02  -0.58765193E-03
  2203.4600        1.2883843        1.2864433       0.94860207       0.94666107       0.19649763E-02   0.44586009E-02
  2204.4600        1.3009923        1.2949988       0.95434023       0.94834668       0.54627215E-02   0.16061206E-02
  2205.4600        1.2993097        1.3045287       0.94578783       0.95100678       0.51772174E-02   0.30784511E-02
  2206.4600        1.3113467        1.3149798       0.95095499       0.95458798       0.11619624E-01   0.81362265E-03
  2207.4600        1.3225490        1.3262985       0.95528740       0.95903693       0.68044627E-02  -0.41980624E-02
  2208.4600        1.3249557        1.3384317       0.95082424       0.96430024       0.32234988E-02   0.30041944E-02
  2209.4600        1.3289960        1.3513258       0.94799472       0.97032456       0.12812852E-01   0.51665999E-02
  2210.4600        1.3505814        1.3649276       0.96271026       0.97705651       0.13556699E-01  -0.13891118E-03
  2211.4600        1.3561094        1.3791837       0.96136844       0.98444272       0.12535029E-01   0.34247688E-02
  2212.4600        1.3756514        1.3940406       0.97404064       0.99242983       0.20406236E-01   0.64020772E-02
  2213.4600        1.3969219        1.4094451       0.98844123        1.0009645       0.25339184E-01   0.17866411E-02
  2214.4600        1.4263298        1.4253437        1.0109793        1.0099932       0.23979518E-01  -0.24741554E-02
  2215.4600        1.4448809        1.4416831        1.0226606        1.0194628       0.20390873E-01   0.10216694E-02
  2216.4600        1.4671115        1.4584100        1.0380214        1.0293198       0.26022857E-01   0.33953222E-02
  2217.4600        1.4969266        1.4754708        1.0609666        1.0395108       0.27181517E-01  -0.29478618E-02
  2218.4600        1.5214746        1.4928124        1.0786448        1.0499825       0.20127134E-01  -0.61601029E-02
  2219.4600        1.5371809        1.5103812        1.0874812        1.0606816       0.14861311E-01   0.59661394E-03
  2220.4600        1.5511972        1.5281240        1.0946277        1.0715545       0.21320361E-01   0.50865819E-02
  2221.4600        1.5798216        1.5459874        1.1163823        1.0825480       0.25034475E-01  -0.15939578E-03
  2222.4600        1.6012661        1.5639179        1.1309570        1.0936088       0.21001570E-01  -0.46884125E-02
  2223.4600        1.6218247        1.5818623        1.1446457        1.1046833       0.15657650E-01  -0.43849844E-02
  2224.4600        1.6325814        1.5997672        1.1485326        1.1157183       0.12231601E-01   0.17283880E-03
  2225.4600        1.6462879        1.6175791        1.1553693        1.1266604       0.16003328E-01   0.53964115E-03
  2226.4600        1.6645881        1.6352448        1.1667996        1.1374563       0.13310883E-01  -0.48606112E-02
  2227.4600        1.6729097        1.6527108        1.1682513        1.1480524       0.62821054E-02  -0.51589182E-02
  2228.4600        1.6771523        1.6699238        1.1656241        1.1583956       0.29930471E-02   0.46852118E-02
  2229.4600        1.6788958        1.6868304        1.1604978        1.1684324       0.15652529E-01   0.75658585E-02
  2230.4600        1.7084574        1.7033773        1.1831895        1.1781094       0.18124764E-01  -0.26060250E-02
  2231.4600        1.7151453        1.7195110        1.1830076        1.1873733       0.10440479E-01   0.80722122E-03
  2232.4600        1.7293383        1.7351783        1.1903308        1.1961707       0.19739206E-01   0.61850685E-02
  2233.4600        1.7546237        1.7503257        1.2087463        1.2044482       0.22810616E-01  -0.31987981E-02
  2234.4600        1.7749596        1.7648998        1.2222123        1.2121526       0.13341610E-01  -0.75901840E-02
  2235.4600        1.7813070        1.7788474        1.2216899        1.2192303       0.76302481E-02   0.82322481E-03
  2236.4600        1.7902201        1.7921149        1.2237331        1.2256280       0.14988060E-01   0.18576970E-02
  2237.4600        1.8112831        1.8046492        1.2379263        1.2312924       0.11345642E-01  -0.66798996E-02
  2238.4600        1.8129113        1.8163967        1.2326848        1.2361701       0.16282607E-02  -0.97173815E-02
