# XDI/1.0 Athena/0.9.26
# Element.edge:                  K
# Element.symbol:                P
# Column.1:                      energy eV
# Column.2:                      xmu
# Column.3:                      bkg
# Column.4:                      pre_edge
# Column.5:                      post_edge
# Column.6:                      der
# Column.7:                      sec
# Column.8:                      i0
# Column.9:                      chi(e)
# Athena.e0:                     2152
# Athena.eshift:                 0.49
# Athena.rbkg:                   1.0
# Athena.importance:             1
# Athena.standard:               None
# Athena.bkg_kweight:            2
# Athena.edge_step:              0.1034917
# Athena.fixed_step:             no
# Athena.pre_edge_range:         -20.400 -5.000
# Athena.pre_edge_line:          -1.108338 + 0.000556582 * E
# Athena.normalization_range:    32.000 75.600
# Athena.post_edge_polynomial:   -0.113244 + 0.000142268 * E + 0 * E^2 + 0 * E^3
# Athena.spline_range_energy:    0.000 85.601
# Athena.clamps:                 0 24
# Athena.spline_range_k:         0.000 4.740
# Athena.kweight:                2
# Athena.window:                 hanning
# Athena.phase_correction:       no
# Athena.k_range:                2.740 3.000
# Athena.dk:                     1
# Athena.r_range:                1 3
# Athena.dr:                     0.0
# Athena.window:                 hanning
# Athena.plot_multiplier:        1
# Athena.y_offset:               0
# ///
#------------------------
#   e         xmu        bkg        pre_edge        post_edge        der        sec        i0        chie
  2125.4900       0.10224800       0.10224800       0.74670672E-01   0.18914585      -0.15956000E-02   0.32500000E-04    1.0000000        0.0000000
  2127.4900       0.99056800E-01   0.99056800E-01   0.75783836E-01   0.18943038      -0.15306000E-02  -0.36231250E-03    1.0000000        0.0000000
  2129.4900       0.96125600E-01   0.96125600E-01   0.76896999E-01   0.18971492      -0.30448500E-02  -0.40598125E-03    1.0000000        0.0000000
  2131.4900       0.86877400E-01   0.86877400E-01   0.78010163E-01   0.18999946      -0.31545250E-02   0.48546250E-03    1.0000000        0.0000000
  2133.4900       0.83507500E-01   0.83507500E-01   0.79123326E-01   0.19028399      -0.11030000E-02   0.65576875E-03    1.0000000        0.0000000
  2135.4900       0.82465400E-01   0.82465400E-01   0.80236489E-01   0.19056853      -0.53145000E-03   0.25730000E-03    1.0000000        0.0000000
  2137.4900       0.81381700E-01   0.81381700E-01   0.81349653E-01   0.19085307      -0.73800000E-04   0.45112500E-04    1.0000000        0.0000000
  2139.4900       0.82170200E-01   0.82170200E-01   0.82462816E-01   0.19113760      -0.35100000E-03   0.91206061E-04    1.0000000        0.0000000
  2140.4900       0.80328700E-01   0.80328700E-01   0.83019398E-01   0.19127987       0.19981818E-03   0.10404091E-01    1.0000000        0.0000000
  2140.5900       0.82390000E-01   0.82390000E-01   0.83075056E-01   0.19129410       0.11093500E-01  -0.22586591E-01    1.0000000        0.0000000
  2140.6900       0.82547400E-01   0.82547400E-01   0.83130714E-01   0.19130833      -0.43175000E-02  -0.80577500E-01    1.0000000        0.0000000
  2140.7900       0.81526500E-01   0.81526500E-01   0.83186373E-01   0.19132255      -0.50220000E-02   0.40950000E-01    1.0000000        0.0000000
  2140.8900       0.81543000E-01   0.81543000E-01   0.83242031E-01   0.19133678       0.38725000E-02   0.25242500E-01    1.0000000        0.0000000
  2140.9900       0.82301000E-01   0.82301000E-01   0.83297689E-01   0.19135101       0.26500000E-04  -0.10272500E-01    1.0000000        0.0000000
  2141.0900       0.81548300E-01   0.81548300E-01   0.83353347E-01   0.19136523       0.18180000E-02   0.40675000E-02    1.0000000        0.0000000
  2141.1900       0.82664600E-01   0.82664600E-01   0.83409005E-01   0.19137946       0.84000000E-03  -0.26930000E-01    1.0000000        0.0000000
  2141.2900       0.81716300E-01   0.81716300E-01   0.83464663E-01   0.19139369      -0.35680000E-02   0.21425000E-02    1.0000000        0.0000000
  2141.3900       0.81951000E-01   0.81951000E-01   0.83520322E-01   0.19140791       0.12685000E-02  -0.46175000E-02    1.0000000        0.0000000
  2141.4900       0.81970000E-01   0.81970000E-01   0.83575980E-01   0.19142214      -0.44915000E-02   0.13782500E-01    1.0000000        0.0000000
  2141.5900       0.81052700E-01   0.81052700E-01   0.83631638E-01   0.19143637       0.40250000E-02   0.31742500E-01    1.0000000        0.0000000
  2141.6900       0.82775000E-01   0.82775000E-01   0.83687296E-01   0.19145059       0.18570000E-02  -0.37240000E-01    1.0000000        0.0000000
  2141.7900       0.81424100E-01   0.81424100E-01   0.83742954E-01   0.19146482      -0.34230000E-02  -0.17675000E-02    1.0000000        0.0000000
  2141.8900       0.82090400E-01   0.82090400E-01   0.83798612E-01   0.19147905       0.15035000E-02   0.17835000E-01    1.0000000        0.0000000
  2141.9900       0.81724800E-01   0.81724800E-01   0.83854271E-01   0.19149328       0.14400000E-03   0.21795000E-01    1.0000000        0.0000000
  2142.0900       0.82119200E-01   0.82119200E-01   0.83909929E-01   0.19150750       0.58625000E-02  -0.47825000E-02    1.0000000        0.0000000
  2142.1900       0.82897300E-01   0.82897300E-01   0.83965587E-01   0.19152173      -0.81250000E-03  -0.23942500E-01    1.0000000        0.0000000
  2142.2900       0.81956700E-01   0.81956700E-01   0.84021245E-01   0.19153596       0.10740000E-02   0.28222500E-01    1.0000000        0.0000000
  2142.3900       0.83112100E-01   0.83112100E-01   0.84076903E-01   0.19155018       0.48320000E-02  -0.11690000E-01    1.0000000        0.0000000
  2142.4900       0.82923100E-01   0.82923100E-01   0.84132562E-01   0.19156441      -0.12640000E-02  -0.15632500E-01    1.0000000        0.0000000
  2142.5900       0.82859300E-01   0.82859300E-01   0.84188220E-01   0.19157864       0.17055000E-02   0.22927500E-01    1.0000000        0.0000000
  2142.6900       0.83264200E-01   0.83264200E-01   0.84243878E-01   0.19159286       0.33215000E-02   0.20872500E-01    1.0000000        0.0000000
  2142.7900       0.83523600E-01   0.83523600E-01   0.84299536E-01   0.19160709       0.58800000E-02   0.18990000E-01    1.0000000        0.0000000
  2142.8900       0.84440200E-01   0.84440200E-01   0.84355194E-01   0.19162132       0.71195000E-02  -0.16337500E-01    1.0000000        0.0000000
  2142.9900       0.84947500E-01   0.84947500E-01   0.84410852E-01   0.19163554       0.26125000E-02  -0.46115000E-01    1.0000000        0.0000000
  2143.0900       0.84962700E-01   0.84962700E-01   0.84466511E-01   0.19164977      -0.21035000E-02  -0.41922500E-01    1.0000000        0.0000000
  2143.1900       0.84526800E-01   0.84526800E-01   0.84522169E-01   0.19166400      -0.57720000E-02   0.30675000E-02    1.0000000        0.0000000
  2143.2900       0.83808300E-01   0.83808300E-01   0.84577827E-01   0.19167822      -0.14900000E-02   0.33275000E-01    1.0000000        0.0000000
  2143.3900       0.84228800E-01   0.84228800E-01   0.84633485E-01   0.19169245       0.88300000E-03   0.16377500E-01    1.0000000        0.0000000
  2143.4900       0.83984900E-01   0.83984900E-01   0.84689143E-01   0.19170668       0.17855000E-02  -0.16775000E-02    1.0000000        0.0000000
  2143.5900       0.84585900E-01   0.84585900E-01   0.84744801E-01   0.19172090       0.54750000E-03  -0.31185000E-01    1.0000000        0.0000000
  2143.6900       0.84094400E-01   0.84094400E-01   0.84800460E-01   0.19173513      -0.44515000E-02  -0.31000000E-02    1.0000000        0.0000000
  2143.7900       0.83695600E-01   0.83695600E-01   0.84856118E-01   0.19174936      -0.72500000E-04   0.32757500E-01    1.0000000        0.0000000
  2143.8900       0.84079900E-01   0.84079900E-01   0.84911776E-01   0.19176359       0.21000000E-02  -0.84500000E-02    1.0000000        0.0000000
  2143.9900       0.84115600E-01   0.84115600E-01   0.84967434E-01   0.19177781      -0.17625000E-02  -0.14552500E-01    1.0000000        0.0000000
  2144.0900       0.83727400E-01   0.83727400E-01   0.85023092E-01   0.19179204      -0.81050000E-03   0.14055000E-01    1.0000000        0.0000000
  2144.1900       0.83953500E-01   0.83953500E-01   0.85078750E-01   0.19180627       0.10485000E-02   0.10800000E-01    1.0000000        0.0000000
  2144.2900       0.83937100E-01   0.83937100E-01   0.85134409E-01   0.19182049       0.13495000E-02  -0.92925000E-02    1.0000000        0.0000000
  2144.3900       0.84223400E-01   0.84223400E-01   0.85190067E-01   0.19183472      -0.81000000E-03  -0.12375000E-02    1.0000000        0.0000000
  2144.4900       0.83775100E-01   0.83775100E-01   0.85245725E-01   0.19184895       0.11020000E-02   0.66250000E-03    1.0000000        0.0000000
  2144.5900       0.84443800E-01   0.84443800E-01   0.85301383E-01   0.19186317      -0.67750000E-03  -0.11337500E-01    1.0000000        0.0000000
  2144.6900       0.83639600E-01   0.83639600E-01   0.85357041E-01   0.19187740      -0.11655000E-02   0.33162500E-01    1.0000000        0.0000000
  2144.7900       0.84210700E-01   0.84210700E-01   0.85412699E-01   0.19189163       0.59550000E-02   0.24940000E-01    1.0000000        0.0000000
  2144.8900       0.84830600E-01   0.84830600E-01   0.85468358E-01   0.19190585       0.38225000E-02  -0.40495000E-01    1.0000000        0.0000000
  2144.9900       0.84975200E-01   0.84975200E-01   0.85524016E-01   0.19192008      -0.21440000E-02  -0.36477500E-01    1.0000000        0.0000000
  2145.0900       0.84401800E-01   0.84401800E-01   0.85579674E-01   0.19193431      -0.34730000E-02   0.37942500E-01    1.0000000        0.0000000
  2145.1900       0.84280600E-01   0.84280600E-01   0.85635332E-01   0.19194853       0.54445000E-02   0.50507500E-01    1.0000000        0.0000000
  2145.2900       0.85490700E-01   0.85490700E-01   0.85690990E-01   0.19196276       0.66285000E-02  -0.22717500E-01    1.0000000        0.0000000
  2145.3900       0.85606300E-01   0.85606300E-01   0.85746648E-01   0.19197699       0.90100000E-03  -0.21795000E-01    1.0000000        0.0000000
  2145.4900       0.85670900E-01   0.85670900E-01   0.85802307E-01   0.19199122       0.22695000E-02   0.19145000E-01    1.0000000        0.0000000
  2145.5900       0.86060200E-01   0.86060200E-01   0.85857965E-01   0.19200544       0.47300000E-02   0.46850000E-02    1.0000000        0.0000000
  2145.6900       0.86616900E-01   0.86616900E-01   0.85913623E-01   0.19201967       0.32065000E-02   0.53650000E-02    1.0000000        0.0000000
  2145.7900       0.86701500E-01   0.86701500E-01   0.85969281E-01   0.19203390       0.58030000E-02   0.23350000E-02    1.0000000        0.0000000
  2145.8900       0.87777500E-01   0.87777500E-01   0.86024939E-01   0.19204812       0.36735000E-02  -0.12175000E-01    1.0000000        0.0000000
  2145.9900       0.87436200E-01   0.87436200E-01   0.86080598E-01   0.19206235       0.33680000E-02  -0.17775000E-02    1.0000000        0.0000000
  2146.0900       0.88451100E-01   0.88451100E-01   0.86136256E-01   0.19207658       0.33180000E-02  -0.26125000E-02    1.0000000        0.0000000
  2146.1900       0.88099800E-01   0.88099800E-01   0.86191914E-01   0.19209080       0.28455000E-02   0.17277500E-01    1.0000000        0.0000000
  2146.2900       0.89020200E-01   0.89020200E-01   0.86247572E-01   0.19210503       0.67735000E-02   0.28875000E-02    1.0000000        0.0000000
  2146.3900       0.89454500E-01   0.89454500E-01   0.86303230E-01   0.19211926       0.34230000E-02  -0.26860000E-01    1.0000000        0.0000000
  2146.4900       0.89704800E-01   0.89704800E-01   0.86358888E-01   0.19213348       0.14015000E-02   0.12050000E-01    1.0000000        0.0000000
  2146.5900       0.89734800E-01   0.89734800E-01   0.86414547E-01   0.19214771       0.58330000E-02   0.77075000E-02    1.0000000        0.0000000
  2146.6900       0.90871400E-01   0.90871400E-01   0.86470205E-01   0.19216194       0.29430000E-02  -0.44370000E-01    1.0000000        0.0000000
  2146.7900       0.90323400E-01   0.90323400E-01   0.86525863E-01   0.19217616      -0.30410000E-02   0.29330000E-01    1.0000000        0.0000000
  2146.8900       0.90263200E-01   0.90263200E-01   0.86581521E-01   0.19219039       0.88090000E-02   0.27980000E-01    1.0000000        0.0000000
  2146.9900       0.92085200E-01   0.92085200E-01   0.86637179E-01   0.19220462       0.25550000E-02  -0.45727500E-01    1.0000000        0.0000000
  2147.0900       0.90774200E-01   0.90774200E-01   0.86692837E-01   0.19221884      -0.33650000E-03   0.50375000E-01    1.0000000        0.0000000
  2147.1900       0.92017900E-01   0.92017900E-01   0.86748496E-01   0.19223307       0.12630000E-01   0.69032500E-01    1.0000000        0.0000000
  2147.2900       0.93300200E-01   0.93300200E-01   0.86804154E-01   0.19224730       0.13470000E-01  -0.48905000E-01    1.0000000        0.0000000
  2147.3900       0.94711900E-01   0.94711900E-01   0.86859812E-01   0.19226153       0.28490000E-02  -0.43117500E-01    1.0000000        0.0000000
  2147.4900       0.93870000E-01   0.93870000E-01   0.86915470E-01   0.19227575       0.48465000E-02   0.35030000E-01    1.0000000        0.0000000
  2147.5900       0.95681200E-01   0.95681200E-01   0.86971128E-01   0.19228998       0.98550000E-02   0.12530000E-01    1.0000000        0.0000000
  2147.6900       0.95841000E-01   0.95841000E-01   0.87026786E-01   0.19230421       0.73525000E-02  -0.32592500E-01    1.0000000        0.0000000
  2147.7900       0.97151700E-01   0.97151700E-01   0.87082445E-01   0.19231843       0.33365000E-02  -0.50955000E-01    1.0000000        0.0000000
  2147.8900       0.96508300E-01   0.96508300E-01   0.87138103E-01   0.19233266      -0.28385000E-02  -0.14950000E-02    1.0000000        0.0000000
  2147.9900       0.96584000E-01   0.96584000E-01   0.87193761E-01   0.19234689       0.30375000E-02   0.44325000E-01    1.0000000        0.0000000
  2148.0900       0.97115800E-01   0.97115800E-01   0.87249419E-01   0.19236111       0.60265000E-02  -0.13670000E-01    1.0000000        0.0000000
  2148.1900       0.97789300E-01   0.97789300E-01   0.87305077E-01   0.19237534       0.30350000E-03  -0.25092500E-01    1.0000000        0.0000000
  2148.2900       0.97176500E-01   0.97176500E-01   0.87360735E-01   0.19238957       0.10080000E-02   0.13102500E-01    1.0000000        0.0000000
  2148.3900       0.97990900E-01   0.97990900E-01   0.87416394E-01   0.19240379       0.29240000E-02  -0.94800000E-02    1.0000000        0.0000000
  2148.4900       0.97761300E-01   0.97761300E-01   0.87472052E-01   0.19241802      -0.88800000E-03  -0.12585000E-01    1.0000000        0.0000000
  2148.5900       0.97813300E-01   0.97813300E-01   0.87527710E-01   0.19243225       0.40700000E-03   0.46700000E-01    1.0000000        0.0000000
  2148.6900       0.97842700E-01   0.97842700E-01   0.87583368E-01   0.19244647       0.84520000E-02   0.45495000E-01    1.0000000        0.0000000
  2148.7900       0.99503700E-01   0.99503700E-01   0.87639026E-01   0.19246070       0.95060000E-02   0.51475000E-02    1.0000000        0.0000000
  2148.8900       0.99743900E-01   0.99743900E-01   0.87694685E-01   0.19247493       0.94815000E-02   0.74725000E-02    1.0000000        0.0000000
  2148.9900       0.10140000       0.10140000       0.87750343E-01   0.19248915       0.11000500E-01   0.90925000E-02    1.0000000        0.0000000
  2149.0900       0.10194400       0.10194400       0.87806001E-01   0.19250338       0.11300000E-01   0.20472500E-01    1.0000000        0.0000000
  2149.1900       0.10366000       0.10366000       0.87861659E-01   0.19251761       0.15095000E-01   0.71800000E-01    1.0000000        0.0000000
  2149.2900       0.10496300       0.10496300       0.87917317E-01   0.19253184       0.25660000E-01   0.52400000E-01    1.0000000        0.0000000
  2149.3900       0.10879200       0.10879200       0.87972975E-01   0.19254606       0.25575000E-01  -0.13225000E-01    1.0000000        0.0000000
  2149.4900       0.11007800       0.11007800       0.88028634E-01   0.19256029       0.23015000E-01   0.11700000E-01    1.0000000        0.0000000
  2149.5900       0.11339500       0.11339500       0.88084292E-01   0.19257452       0.27915000E-01   0.66325000E-01    1.0000000        0.0000000
  2149.6900       0.11566100       0.11566100       0.88139950E-01   0.19258874       0.36280000E-01   0.79125000E-01    1.0000000        0.0000000
  2149.7900       0.12065100       0.12065100       0.88195608E-01   0.19260297       0.43740000E-01   0.56950000E-01    1.0000000        0.0000000
  2149.8900       0.12440900       0.12440900       0.88251266E-01   0.19261720       0.47670000E-01   0.40900000E-01    1.0000000        0.0000000
  2149.9900       0.13018500       0.13018500       0.88306924E-01   0.19263142       0.51920000E-01  -0.39750000E-02    1.0000000        0.0000000
  2150.0900       0.13479300       0.13479300       0.88362583E-01   0.19264565       0.46875000E-01   0.20275000E-01    1.0000000        0.0000000
  2150.1900       0.13956000       0.13956000       0.88418241E-01   0.19265988       0.55975000E-01   0.17117500        1.0000000        0.0000000
  2150.2900       0.14598800       0.14598800       0.88473899E-01   0.19267410       0.81110000E-01   0.24452500        1.0000000        0.0000000
  2150.3900       0.15578200       0.15578200       0.88529557E-01   0.19268833       0.10488000       0.23192500        1.0000000        0.0000000
  2150.4900       0.16696400       0.16696400       0.88585215E-01   0.19270256       0.12749500       0.33960000        1.0000000        0.0000000
  2150.5900       0.18128100       0.18128100       0.88640873E-01   0.19271678       0.17280000       0.54642500        1.0000000        0.0000000
  2150.6900       0.20152400       0.20152400       0.88696532E-01   0.19273101       0.23678000       0.51342500        1.0000000        0.0000000
  2150.7900       0.22863700       0.22863700       0.88752190E-01   0.19274524       0.27548500       0.35272500        1.0000000        0.0000000
  2150.8900       0.25662100       0.25662100       0.88807848E-01   0.19275946       0.30732500       0.39665000        1.0000000        0.0000000
  2150.9900       0.29010200       0.29010200       0.88863506E-01   0.19277369       0.35481500       0.45260000        1.0000000        0.0000000
  2151.0900       0.32758400       0.32758400       0.88919164E-01   0.19278792       0.39784500       0.39940000        1.0000000        0.0000000
  2151.1900       0.36967100       0.36967100       0.88974822E-01   0.19280215       0.43469500       0.43027500        1.0000000        0.0000000
  2151.2900       0.41452300       0.41452300       0.89030481E-01   0.19281637       0.48390000       0.69072500        1.0000000        0.0000000
  2151.3900       0.46645100       0.46645100       0.89086139E-01   0.19283060       0.57284000        1.3747750        1.0000000        0.0000000
  2151.4900       0.52909100       0.52909100       0.89141797E-01   0.19284483       0.75885500        1.9483500        1.0000000        0.0000000
  2151.5900       0.61822200       0.61822200       0.89197455E-01   0.19285905       0.96251000        1.3368500        1.0000000        0.0000000
  2151.6900       0.72159300       0.72159300       0.89253113E-01   0.19287328        1.0262250       0.43210000        1.0000000        0.0000000
  2151.7900       0.82346700       0.82346700       0.89308772E-01   0.19288751        1.0489300      -0.27280000        1.0000000        0.0000000
  2151.8900       0.93137900       0.93137900       0.89364430E-01   0.19290173       0.97166500       -1.4806250        1.0000000        0.0000000
  2151.9900        1.0178000        1.0178000       0.89420088E-01   0.19291596       0.75280500       -2.5915750        1.0000000        0.0000000
  2152.0900        1.0819400       0.49097387       0.89475746E-01   0.19293019       0.45335000       -2.6857750        1.0000000        5.7102756
  2152.1900        1.1084700       0.48903936       0.89531404E-01   0.19294441       0.21565000       -2.1627500        1.0000000        5.9853170
  2152.2900        1.1250700       0.48711604       0.89587062E-01   0.19295864       0.20800000E-01   -1.9720000        1.0000000        6.1643007
  2152.3900        1.1126300       0.48520385       0.89642721E-01   0.19297287      -0.17875000       -1.5465000        1.0000000        6.0625746
  2152.4900        1.0893200       0.48330275       0.89698379E-01   0.19298709      -0.28850000       -1.0162500        1.0000000        5.8557087
  2152.5900        1.0549300       0.48141270       0.89754037E-01   0.19300132      -0.38200000      -0.74285000        1.0000000        5.5416743
  2152.6900        1.0129200       0.47953366       0.89809695E-01   0.19301555      -0.43707000      -0.27930000        1.0000000        5.1539045
  2152.7900       0.96751600       0.47766559       0.89865353E-01   0.19302977      -0.43786000      -0.27697500        1.0000000        4.7332338
  2152.8900       0.92534800       0.47580844       0.89921011E-01   0.19304400      -0.49246500      -0.26507500        1.0000000        4.3437257
  2152.9900       0.86902300       0.47396217       0.89976670E-01   0.19305823      -0.49087500       0.24280000        1.0000000        3.8173190
  2153.0900       0.82717300       0.47212674       0.90032328E-01   0.19307246      -0.44390500       0.24802500        1.0000000        3.4306738
  2153.1900       0.78024200       0.47030211       0.90087986E-01   0.19308668      -0.44127000       0.18795000        1.0000000        2.9948285
  2153.2900       0.73891900       0.46848823       0.90143644E-01   0.19310091      -0.40631500       0.43265000        1.0000000        2.6130673
  2153.3900       0.69897900       0.46668506       0.90199302E-01   0.19311514      -0.35474000       0.56622500        1.0000000        2.2445659
  2153.4900       0.66797100       0.46489256       0.90254960E-01   0.19312936      -0.29307000       0.41602500        1.0000000        1.9622679
  2153.5900       0.64036500       0.46311068       0.90310619E-01   0.19314359      -0.27153500       0.36810000        1.0000000        1.7127394
  2153.6900       0.61366400       0.46133939       0.90366277E-01   0.19315782      -0.21945000       0.45852500        1.0000000        1.4718534
  2153.7900       0.59647500       0.45957865       0.90421935E-01   0.19317204      -0.17983000       0.30665000        1.0000000        1.3227762
  2153.8900       0.57769800       0.45782840       0.90477593E-01   0.19318627      -0.15812000       0.40147500        1.0000000        1.1582533
  2153.9900       0.56485100       0.45608861       0.90533251E-01   0.19320050      -0.99535000E-01   0.45270000        1.0000000        1.0509287
  2154.0900       0.55779100       0.45435923       0.90588909E-01   0.19321472      -0.67580000E-01   0.27040000        1.0000000       0.99942092
  2154.1900       0.55133500       0.45264023       0.90644568E-01   0.19322895      -0.45455000E-01   0.31392500        1.0000000       0.95364917
  2154.2900       0.54870000       0.45093155       0.90700226E-01   0.19324318      -0.47950000E-02   0.27140000        1.0000000       0.94469844
  2154.3900       0.55037600       0.44923317       0.90755884E-01   0.19325740       0.88250000E-02   0.99825000E-01    1.0000000       0.97730382
  2154.4900       0.55046500       0.44754503       0.90811542E-01   0.19327163       0.15170000E-01  -0.77500000E-03    1.0000000       0.99447564
  2154.5900       0.55341000       0.44586709       0.90867200E-01   0.19328586       0.86700000E-02  -0.18225000E-01    1.0000000        1.0391453
  2154.6900       0.55219900       0.44419931       0.90922859E-01   0.19330008       0.11525000E-01   0.47550000E-01    1.0000000        1.0435590
  2154.7900       0.55571500       0.44254165       0.90978517E-01   0.19331431       0.18180000E-01  -0.10677500        1.0000000        1.0935500
  2154.8900       0.55583500       0.44089406       0.91034175E-01   0.19332854      -0.98300000E-02  -0.16047500        1.0000000        1.1106295
  2154.9900       0.55374900       0.43925651       0.91089833E-01   0.19334277      -0.13915000E-01  -0.14055000        1.0000000        1.1062963
  2155.0900       0.55305200       0.43762895       0.91145491E-01   0.19335699      -0.37940000E-01  -0.29940000        1.0000000        1.1152880
  2155.1900       0.54616100       0.43601134       0.91201149E-01   0.19337122      -0.73795000E-01  -0.29870000        1.0000000        1.0643333
  2155.2900       0.53829300       0.43440364       0.91256808E-01   0.19338545      -0.97680000E-01  -0.10367500        1.0000000        1.0038425
  2155.3900       0.52662500       0.43280580       0.91312466E-01   0.19339967      -0.94530000E-01  -0.28875000E-01    1.0000000       0.90653844
  2155.4900       0.51938700       0.43121778       0.91368124E-01   0.19341390      -0.10345500      -0.19777500        1.0000000       0.85194489
  2155.5900       0.50593400       0.42963953       0.91423782E-01   0.19342813      -0.13408500      -0.99925000E-01    1.0000000       0.73720372
  2155.6900       0.49257000       0.42807103       0.91479440E-01   0.19344235      -0.12344000      -0.16500000E-01    1.0000000       0.62322844
  2155.7900       0.48124600       0.42651222       0.91535098E-01   0.19345658      -0.13738500      -0.10755000        1.0000000       0.52887121
  2155.8900       0.46509300       0.42496306       0.91590757E-01   0.19347081      -0.14495000       0.10252500        1.0000000       0.38775998
  2155.9900       0.45225600       0.42342351       0.91646415E-01   0.19348503      -0.11688000       0.11300000        1.0000000       0.27859711
  2156.0900       0.44171700       0.42189353       0.91702073E-01   0.19349926      -0.12235000      -0.16310000        1.0000000       0.19154647
  2156.1900       0.42778600       0.42037307       0.91757731E-01   0.19351349      -0.14950000      -0.13682500        1.0000000       0.71628228E-01
  2156.2900       0.41181700       0.41886210       0.91813389E-01   0.19352771      -0.14971500       0.24800000E-01    1.0000000      -0.68074040E-01
  2156.3900       0.39784300       0.41736056       0.91869047E-01   0.19354194      -0.14454000      -0.40350000E-01    1.0000000      -0.18859061
  2156.4900       0.38290900       0.41586843       0.91924706E-01   0.19355617      -0.15778500       0.55750000E-02    1.0000000      -0.31847410
  2156.5900       0.36628600       0.41438564       0.91980364E-01   0.19357040      -0.14342500       0.19330000        1.0000000      -0.46476813
  2156.6900       0.35422400       0.41291217       0.92036022E-01   0.19358462      -0.11912500       0.10152500        1.0000000      -0.56708098
  2156.7900       0.34246100       0.41144798       0.92091680E-01   0.19359885      -0.12312000      -0.10675000        1.0000000      -0.66659428
  2156.8900       0.32960000       0.40999300       0.92147338E-01   0.19361308      -0.14047500       0.90825000E-01    1.0000000      -0.77680630
  2156.9900       0.31436600       0.40854722       0.92202996E-01   0.19362730      -0.10495500       0.34977500        1.0000000      -0.91003645
  2157.0900       0.30860900       0.40711058       0.92258655E-01   0.19364153      -0.70520000E-01   0.11825000        1.0000000      -0.95178239
  2157.1900       0.30026200       0.40568304       0.92314313E-01   0.19365576      -0.81305000E-01  -0.52775000E-01    1.0000000       -1.0186424
  2157.2900       0.29234800       0.40426455       0.92369971E-01   0.19366998      -0.81075000E-01   0.46250000E-01    1.0000000       -1.0814061
  2157.3900       0.28404700       0.40285509       0.92425629E-01   0.19368421      -0.72055000E-01   0.12202500        1.0000000       -1.1479963
  2157.4900       0.27793700       0.40145460       0.92481287E-01   0.19369844      -0.56670000E-01   0.56600000E-01    1.0000000       -1.1935024
  2157.5900       0.27271300       0.40006303       0.92536945E-01   0.19371266      -0.60735000E-01  -0.39500000E-01    1.0000000       -1.2305338
  2157.6900       0.26579000       0.39868036       0.92592604E-01   0.19372689      -0.64570000E-01   0.40225000E-01    1.0000000       -1.2840678
  2157.7900       0.25979900       0.39730654       0.92648262E-01   0.19374112      -0.52690000E-01   0.10382500        1.0000000       -1.3286818
  2157.8900       0.25525200       0.39594151       0.92703920E-01   0.19375534      -0.43805000E-01   0.12350000E-01    1.0000000       -1.3594280
  2157.9900       0.25103800       0.39458526       0.92759578E-01   0.19376957      -0.50220000E-01  -0.20875000E-01    1.0000000       -1.3870412
  2158.0900       0.24520800       0.39323771       0.92815236E-01   0.19378380      -0.47980000E-01   0.94125000E-01    1.0000000       -1.4303535
  2158.1900       0.24144200       0.39189885       0.92870895E-01   0.19379802      -0.31395000E-01   0.14167500        1.0000000       -1.4538060
  2158.2900       0.23892900       0.39056862       0.92926553E-01   0.19381225      -0.19645000E-01   0.50750000E-02    1.0000000       -1.4652346
  2158.3900       0.23751300       0.38924699       0.92982211E-01   0.19382648      -0.30380000E-01   0.10000000E-01    1.0000000       -1.4661464
  2158.4900       0.23285300       0.38793390       0.93037869E-01   0.19384071      -0.17645000E-01   0.12485000        1.0000000       -1.4984864
  2158.5900       0.23398400       0.38662932       0.93093527E-01   0.19385493      -0.54100000E-02   0.45500000E-01    1.0000000       -1.4749523
  2158.6900       0.23177100       0.38533321       0.93149185E-01   0.19386916      -0.85450000E-02   0.59800000E-01    1.0000000       -1.4838118
  2158.7900       0.23227500       0.38404552       0.93204844E-01   0.19388339       0.65500000E-02   0.94525000E-01    1.0000000       -1.4664994
  2158.8900       0.23308100       0.38276621       0.93260502E-01   0.19389761       0.10360000E-01   0.47475000E-01    1.0000000       -1.4463499
  2158.9900       0.23434700       0.38149524       0.93316160E-01   0.19391184       0.16045000E-01   0.77250000E-02    1.0000000       -1.4218361
  2159.0900       0.23629000       0.38023256       0.93371818E-01   0.19392607       0.11905000E-01  -0.11325000E-01    1.0000000       -1.3908609
  2159.1900       0.23672800       0.37897814       0.93427476E-01   0.19394029       0.13780000E-01  -0.15175000E-01    1.0000000       -1.3745077
  2159.2900       0.23904600       0.37773193       0.93483134E-01   0.19395452       0.88700000E-02   0.24875000E-01    1.0000000       -1.3400681
  2159.3900       0.23850200       0.37649388       0.93538793E-01   0.19396875       0.18755000E-01   0.78475000E-01    1.0000000       -1.3333618
  2159.4900       0.24279700       0.37526396       0.93594451E-01   0.19398297       0.24565000E-01   0.12500000E-03    1.0000000       -1.2799767
  2159.5900       0.24341500       0.37404213       0.93650109E-01   0.19399720       0.18780000E-01   0.86000000E-02    1.0000000       -1.2621991
  2159.6900       0.24655300       0.37282834       0.93705767E-01   0.19401143       0.26285000E-01  -0.22300000E-01    1.0000000       -1.2201494
  2159.7900       0.24867200       0.37162254       0.93761425E-01   0.19402565       0.14320000E-01   0.21050000E-01    1.0000000       -1.1880232
  2159.8900       0.24941700       0.37042471       0.93817083E-01   0.19403988       0.30495000E-01   0.75525000E-01    1.0000000       -1.1692504
  2159.9900       0.25477100       0.36923478       0.93872742E-01   0.19405411       0.29425000E-01  -0.70400000E-01    1.0000000       -1.1060190
  2160.0900       0.25530200       0.36805273       0.93928400E-01   0.19406833       0.16415000E-01  -0.65425000E-01    1.0000000       -1.0894664
  2160.1900       0.25805400       0.36687851       0.93984058E-01   0.19408256       0.16340000E-01  -0.50025000E-01    1.0000000       -1.0515289
  2160.2900       0.25857000       0.36571208       0.94039716E-01   0.19409679       0.64100000E-02  -0.20750000E-01    1.0000000       -1.0352722
  2160.3900       0.25933600       0.36455339       0.94095374E-01   0.19411102       0.12190000E-01   0.89383333E-01    1.0000000       -1.0166747
  2160.4900       0.26100800       0.36340240       0.94151032E-01   0.19412524       0.24286667E-01   0.29376667E-01    1.0000000      -0.98939723
  2160.9900       0.27390800       0.35776152       0.94429323E-01   0.19419638       0.29816000E-01   0.14220333E-01    1.0000000      -0.81024387
  2161.4900       0.29082400       0.35230683       0.94707614E-01   0.19426751       0.38507000E-01   0.12655000E-01    1.0000000      -0.59408466
  2161.9900       0.31241500       0.34703305       0.94985905E-01   0.19433864       0.42471000E-01  -0.12762000E-01    1.0000000      -0.33450073
  2162.4900       0.33329500       0.34193487       0.95264196E-01   0.19440978       0.25745000E-01  -0.48246000E-01    1.0000000      -0.83483731E-01
  2162.9900       0.33816000       0.33700700       0.95542487E-01   0.19448091      -0.57750000E-02  -0.49930000E-01    1.0000000       0.11140947E-01
  2163.4900       0.32752000       0.33224415       0.95820778E-01   0.19455205      -0.24185000E-01  -0.12105000E-01    1.0000000      -0.45647579E-01
  2163.9900       0.31397500       0.32764100       0.96099069E-01   0.19462318      -0.17880000E-01   0.24404000E-01    1.0000000      -0.13204923
  2164.4900       0.30964000       0.32319227       0.96377359E-01   0.19469432       0.21900000E-03   0.26813000E-01    1.0000000      -0.13095028
  2164.9900       0.31419400       0.31889265       0.96655650E-01   0.19476545       0.89330000E-02   0.68220000E-02    1.0000000      -0.45401240E-01
  2165.4900       0.31857300       0.31473686       0.96933941E-01   0.19483658       0.70410000E-02  -0.29240000E-02    1.0000000       0.37067170E-01
  2165.9900       0.32123500       0.31071958       0.97212232E-01   0.19490772       0.60090000E-02   0.81800000E-03    1.0000000       0.10160640
  2166.4900       0.32458200       0.30683553       0.97490523E-01   0.19497885       0.78590000E-02   0.53790000E-02    1.0000000       0.17147723
  2166.9900       0.32909400       0.30307941       0.97768814E-01   0.19504999       0.11388000E-01   0.71360000E-02    1.0000000       0.25136889
  2167.4900       0.33597000       0.29944591       0.98047105E-01   0.19512112       0.14995000E-01   0.64730000E-02    1.0000000       0.35291806
  2167.9900       0.34408900       0.29592974       0.98325395E-01   0.19519226       0.17861000E-01  -0.23760000E-02    1.0000000       0.46534413
  2168.4900       0.35383100       0.29252561       0.98603686E-01   0.19526339       0.12619000E-01  -0.12992000E-01    1.0000000       0.59237008
  2168.9900       0.35670800       0.28922822       0.98881977E-01   0.19533452       0.48690000E-02  -0.15601000E-01    1.0000000       0.65203087
  2169.4900       0.35870000       0.28603226       0.99160268E-01   0.19540566      -0.29820000E-02  -0.18379000E-01    1.0000000       0.70216010
  2169.9900       0.35372600       0.28293244       0.99438559E-01   0.19547679      -0.13510000E-01  -0.13967000E-01    1.0000000       0.68405061
  2170.4900       0.34519000       0.27992346       0.99716850E-01   0.19554793      -0.16949000E-01  -0.33430000E-02    1.0000000       0.63064513
  2170.9900       0.33677700       0.27700003       0.99995141E-01   0.19561906      -0.16853000E-01   0.84700000E-03    1.0000000       0.57760156
  2171.4900       0.32833700       0.27415685       0.10027343       0.19569020      -0.16102000E-01   0.17590000E-02    1.0000000       0.52352171
  2171.9900       0.32067500       0.27138861       0.10055172       0.19576133      -0.15094000E-01   0.28060000E-02    1.0000000       0.47623516
  2172.4900       0.31324300       0.26869003       0.10083001       0.19583246      -0.13296000E-01   0.21440000E-02    1.0000000       0.43049800
  2172.9900       0.30737900       0.26605580       0.10110830       0.19590360      -0.12950000E-01  -0.25030000E-02    1.0000000       0.39928998
  2173.4900       0.30029300       0.26348088       0.10138659       0.19597473      -0.15799000E-01  -0.21940000E-02    1.0000000       0.35570120
  2173.9900       0.29158000       0.26096298       0.10166489       0.19604587      -0.15144000E-01   0.84000000E-03    1.0000000       0.29584035
  2174.4900       0.28514900       0.25850154       0.10194318       0.19611700      -0.14959000E-01  -0.73800000E-03    1.0000000       0.25748401
  2174.9900       0.27662100       0.25609603       0.10222147       0.19618813      -0.15882000E-01  -0.24350000E-02    1.0000000       0.19832477
  2175.4900       0.26926700       0.25374592       0.10249976       0.19625927      -0.17394000E-01   0.20030000E-02    1.0000000       0.14997419
  2175.9900       0.25922700       0.25145066       0.10277805       0.19633040      -0.13879000E-01   0.44610000E-02    1.0000000       0.75139780E-01
  2176.4900       0.25538800       0.24920972       0.10305634       0.19640154      -0.12933000E-01   0.20000000E-05    1.0000000       0.59698316E-01
  2176.9900       0.24629400       0.24702257       0.10333463       0.19647267      -0.13877000E-01   0.12020000E-02    1.0000000      -0.70398969E-02
  2177.4900       0.24151100       0.24488867       0.10361292       0.19654381      -0.11731000E-01   0.35030000E-02    1.0000000      -0.32637157E-01
  2177.9900       0.23456300       0.24280750       0.10389121       0.19661494      -0.10374000E-01   0.42120000E-02    1.0000000      -0.79663360E-01
  2178.4900       0.23113700       0.24077850       0.10416950       0.19668607      -0.75190000E-02   0.28830000E-02    1.0000000      -0.93162073E-01
  2178.9900       0.22704400       0.23880115       0.10444779       0.19675721      -0.74910000E-02   0.11810000E-02    1.0000000      -0.11360480
  2179.4900       0.22364600       0.23687492       0.10472609       0.19682834      -0.63380000E-02  -0.31800000E-03    1.0000000      -0.12782590
  2179.9900       0.22070600       0.23499926       0.10500438       0.19689948      -0.78090000E-02   0.41000000E-04    1.0000000      -0.13811024
  2180.4900       0.21583700       0.23317365       0.10528267       0.19697061      -0.62970000E-02   0.38030000E-02    1.0000000      -0.16751730
  2180.9900       0.21440900       0.23139755       0.10556096       0.19704175      -0.40060000E-02   0.11800000E-03    1.0000000      -0.16415370
  2181.4900       0.21183100       0.22967041       0.10583925       0.19711288      -0.61790000E-02  -0.16650000E-02    1.0000000      -0.17237531
  2181.9900       0.20823000       0.22799172       0.10611754       0.19718401      -0.56710000E-02   0.27440000E-02    1.0000000      -0.19094981
  2182.4900       0.20616000       0.22636093       0.10639583       0.19725515      -0.34350000E-02   0.29690000E-02    1.0000000      -0.19519373
  2182.9900       0.20479500       0.22477751       0.10667412       0.19732628      -0.27020000E-02   0.17360000E-02    1.0000000      -0.19308321
  2183.4900       0.20345800       0.22324092       0.10695241       0.19739742      -0.16990000E-02   0.22110000E-02    1.0000000      -0.19115467
  2183.9900       0.20309600       0.22175063       0.10723070       0.19746855      -0.49100000E-03   0.15600000E-02    1.0000000      -0.18025245
  2184.4900       0.20296700       0.22030611       0.10750899       0.19753969      -0.13900000E-03   0.92700000E-03    1.0000000      -0.16754103
  2184.9900       0.20295700       0.21890681       0.10778728       0.19761082       0.43600000E-03   0.35900000E-03    1.0000000      -0.15411680
  2185.4900       0.20340300       0.21755221       0.10806558       0.19768195       0.22000000E-03  -0.88500000E-03    1.0000000      -0.13671827
  2185.9900       0.20317700       0.21624176       0.10834387       0.19775309      -0.44900000E-03  -0.17940000E-02    1.0000000      -0.12623970
  2186.4900       0.20295400       0.21497494       0.10862216       0.19782422      -0.15740000E-02   0.27200000E-03    1.0000000      -0.11615367
  2186.9900       0.20160300       0.21375121       0.10890045       0.19789536      -0.17700000E-03   0.12290000E-02    1.0000000      -0.11738341
  2187.4900       0.20277700       0.21257003       0.10917874       0.19796649      -0.34500000E-03  -0.20710000E-02    1.0000000      -0.94626248E-01
  2187.9900       0.20125800       0.21143087       0.10945703       0.19803762      -0.22480000E-02  -0.10360000E-02    1.0000000      -0.98296506E-01
  2188.4900       0.20052900       0.21033320       0.10973532       0.19810876      -0.13810000E-02   0.15610000E-02    1.0000000      -0.94734145E-01
  2188.9900       0.19987700       0.20927647       0.11001361       0.19817989      -0.68700000E-03   0.19560000E-02    1.0000000      -0.90823440E-01
  2189.4900       0.19984200       0.20826016       0.11029190       0.19825103       0.57500000E-03  -0.47400000E-03    1.0000000      -0.81341410E-01
  2189.9900       0.20045200       0.20728373       0.11057019       0.19832216      -0.11610000E-02  -0.26070000E-02    1.0000000      -0.66012335E-01
  2190.4900       0.19868100       0.20634664       0.11084848       0.19839330      -0.20320000E-02   0.15040000E-02    1.0000000      -0.74070104E-01
  2190.9900       0.19842000       0.20544836       0.11112678       0.19846443       0.34300000E-03   0.21850000E-02    1.0000000      -0.67912330E-01
  2191.4900       0.19902400       0.20458836       0.11140507       0.19853556       0.15300000E-03  -0.13330000E-02    1.0000000      -0.53766230E-01
  2191.9900       0.19857300       0.20376609       0.11168336       0.19860670      -0.99000000E-03   0.83400000E-03    1.0000000      -0.50178846E-01
  2192.4900       0.19803400       0.20298103       0.11196165       0.19867783       0.98700000E-03   0.20990000E-02    1.0000000      -0.47801265E-01
  2192.9900       0.19956000       0.20223264       0.11223994       0.19874897       0.11090000E-02  -0.86800000E-03    1.0000000      -0.25824716E-01
  2193.4900       0.19914300       0.20152039       0.11251823       0.19882010       0.11900000E-03  -0.14150000E-02    1.0000000      -0.22971776E-01
  2193.9900       0.19967900       0.20084373       0.11279652       0.19889124      -0.30600000E-03  -0.23000000E-03    1.0000000      -0.11254354E-01
  2194.4900       0.19883700       0.20020214       0.11307481       0.19896237      -0.11100000E-03   0.15390000E-02    1.0000000      -0.13190827E-01
  2194.9900       0.19956800       0.19959508       0.11335310       0.19903350       0.12330000E-02   0.10990000E-02    1.0000000      -0.26166118E-03
  2195.4900       0.20007000       0.19902201       0.11363139       0.19910464       0.98800000E-03  -0.17000000E-04    1.0000000       0.10126287E-01
  2195.9900       0.20055600       0.19848241       0.11390968       0.19917577       0.12160000E-02  -0.11830000E-02    1.0000000       0.20036323E-01
  2196.4900       0.20128600       0.19797573       0.11418797       0.19924691      -0.19500000E-03  -0.20790000E-02    1.0000000       0.31985894E-01
  2196.9900       0.20036100       0.19750143       0.11446627       0.19931804      -0.86300000E-03   0.15480000E-02    1.0000000       0.27630872E-01
  2197.4900       0.20042300       0.19705900       0.11474456       0.19938918       0.13530000E-02   0.12360000E-02    1.0000000       0.32505043E-01
  2197.9900       0.20171400       0.19664788       0.11502285       0.19946031       0.37300000E-03  -0.32490000E-02    1.0000000       0.48951927E-01
  2198.4900       0.20079600       0.19626755       0.11530114       0.19953144      -0.18960000E-02  -0.15890000E-02    1.0000000       0.43756639E-01
  2198.9900       0.19981800       0.19591747       0.11557943       0.19960258      -0.12160000E-02   0.74900000E-03    1.0000000       0.37689297E-01
  2199.4900       0.19958000       0.19559711       0.11585772       0.19967371      -0.11470000E-02  -0.86900000E-03    1.0000000       0.38485159E-01
  2199.9900       0.19867100       0.19530592       0.11613601       0.19974485      -0.20850000E-02   0.25833333E-03    1.0000000       0.32515450E-01
  2200.4900       0.19749500       0.19504338       0.11641430       0.19981598      -0.88866667E-03   0.15166667E-03    1.0000000       0.23689034E-01
  2201.4900       0.19733800       0.19460210       0.11697088       0.19995825      -0.18575000E-02  -0.72566667E-03    1.0000000       0.26435937E-01
  2202.4900       0.19378000       0.19426898       0.11752746       0.20010052      -0.23400000E-02   0.13525000E-03    1.0000000      -0.47248312E-02
  2203.4900       0.19265800       0.19403974       0.11808405       0.20024279      -0.15870000E-02   0.61075000E-03    1.0000000      -0.13351262E-01
  2204.4900       0.19060600       0.19391011       0.11864063       0.20038505      -0.11185000E-02   0.21925000E-03    1.0000000      -0.31926352E-01
  2205.4900       0.19042100       0.19387580       0.11919721       0.20052732      -0.11485000E-02  -0.23200000E-03    1.0000000      -0.33382426E-01
  2206.4900       0.18830900       0.19393254       0.11975379       0.20066959      -0.15825000E-02   0.30725000E-03    1.0000000      -0.54338079E-01
  2207.4900       0.18725600       0.19407604       0.12031037       0.20081186      -0.53400000E-03   0.92450000E-03    1.0000000      -0.65899403E-01
  2208.4900       0.18724100       0.19430203       0.12086696       0.20095413       0.26650000E-03   0.15400000E-03    1.0000000      -0.68227962E-01
  2209.4900       0.18778900       0.19460622       0.12142354       0.20109640      -0.22600000E-03   0.18050000E-03    1.0000000      -0.65872144E-01
  2210.4900       0.18678900       0.19498434       0.12198012       0.20123867       0.62750000E-03   0.62800000E-03    1.0000000      -0.79188369E-01
  2211.4900       0.18904400       0.19543210       0.12253670       0.20138093       0.10300000E-02   0.41500000E-03    1.0000000      -0.61725767E-01
  2212.4900       0.18884900       0.19594524       0.12309328       0.20152320       0.14575000E-02   0.60850000E-03    1.0000000      -0.68568179E-01
  2213.4900       0.19195900       0.19651946       0.12364986       0.20166547       0.22470000E-02   0.22125000E-03    1.0000000      -0.44065931E-01
  2214.4900       0.19334300       0.19715049       0.12420645       0.20180774       0.19000000E-02   0.11032500E-02    1.0000000      -0.36790264E-01
  2215.4900       0.19575900       0.19783404       0.12476303       0.20195001       0.44535000E-02   0.45625000E-03    1.0000000      -0.20050348E-01
  2216.4900       0.20225000       0.19856585       0.12531961       0.20209228       0.28125000E-02  -0.94825000E-03    1.0000000       0.35598494E-01
  2217.4900       0.20138400       0.19934163       0.12587619       0.20223454       0.25570000E-02   0.90325000E-03    1.0000000       0.19734648E-01
  2218.4900       0.20736400       0.20015709       0.12643277       0.20237681       0.46190000E-02  -0.33525000E-03    1.0000000       0.69637525E-01
  2219.4900       0.21062200       0.20100797       0.12698935       0.20251908       0.18865000E-02  -0.15512500E-02    1.0000000       0.92896616E-01
  2220.4900       0.21113700       0.20188998       0.12754594       0.20266135       0.15165000E-02  -0.22150000E-03    1.0000000       0.89350360E-01
  2221.4900       0.21365500       0.20279884       0.12810252       0.20280362       0.14435000E-02  -0.36825000E-03    1.0000000       0.10489886
  2222.4900       0.21402400       0.20373027       0.12865910       0.20294589       0.78000000E-03  -0.62225000E-03    1.0000000       0.99464301E-01
  2223.4900       0.21521500       0.20467999       0.12921568       0.20308816       0.19900000E-03  -0.97875000E-03    1.0000000       0.10179566
  2224.4900       0.21442200       0.20564373       0.12977226       0.20323042      -0.11775000E-02  -0.70200000E-03    1.0000000       0.84820993E-01
  2225.4900       0.21286000       0.20661720       0.13032884       0.20337269      -0.12050000E-02   0.21850000E-03    1.0000000       0.60321731E-01
  2226.4900       0.21201200       0.20759613       0.13088543       0.20351496      -0.74050000E-03   0.53250000E-03    1.0000000       0.42668876E-01
  2227.4900       0.21137900       0.20857622       0.13144201       0.20365723      -0.14000000E-03   0.87725000E-03    1.0000000       0.27082135E-01
  2228.4900       0.21173200       0.20955322       0.13199859       0.20379950       0.10140000E-02   0.12050000E-03    1.0000000       0.21052732E-01
  2229.4900       0.21340700       0.21052283       0.13255517       0.20394177       0.10100000E-03  -0.20025000E-03    1.0000000       0.27868657E-01
  2230.4900       0.21193400       0.21148077       0.13311175       0.20408403       0.61350000E-03   0.19247500E-02    1.0000000       0.43793916E-02
  2231.4900       0.21463400       0.21242277       0.13366833       0.20422630       0.39505000E-02   0.64900000E-03    1.0000000       0.21366259E-01
  2232.4900       0.21983500       0.21334455       0.13422492       0.20436857       0.19115000E-02  -0.24062500E-02    1.0000000       0.62714727E-01
  2233.4900       0.21845700       0.21424182       0.13478150       0.20451084      -0.86200000E-03  -0.10305000E-02    1.0000000       0.40729641E-01
  2234.4900       0.21811100       0.21511031       0.13533808       0.20465311      -0.14950000E-03   0.60675000E-03    1.0000000       0.28994483E-01
  2235.4900       0.21815800       0.21594574       0.13589466       0.20479538       0.35150000E-03   0.43775000E-03    1.0000000       0.21376196E-01
  2236.4900       0.21881400       0.21674383       0.13645124       0.20493765       0.72600000E-03  -0.26800000E-03    1.0000000       0.20003255E-01
  2237.4900       0.21961000       0.21750030       0.13700783       0.20507991      -0.18450000E-03  -0.94550000E-03    1.0000000       0.20385247E-01
  2238.4900       0.21844500       0.21844500       0.13756441       0.20522218      -0.11650000E-02  -0.98050000E-03    1.0000000        0.0000000
