# XDI/1.0 Athena/0.9.26
# Element.edge:                  K
# Element.symbol:                P
# Column.1:                      energy eV
# Column.2:                      xmu
# Column.3:                      bkg
# Column.4:                      pre_edge
# Column.5:                      post_edge
# Column.6:                      der
# Column.7:                      sec
# Column.8:                      i0
# Column.9:                      chi(e)
# Athena.e0:                     2152
# Athena.eshift:                 0.49
# Athena.rbkg:                   1.0
# Athena.importance:             1
# Athena.standard:               None
# Athena.bkg_kweight:            2
# Athena.edge_step:              0.2891696
# Athena.fixed_step:             no
# Athena.pre_edge_range:         -18.400 -5.000
# Athena.pre_edge_line:          -1.240879 + 0.000619387 * E
# Athena.normalization_range:    28.000 73.600
# Athena.post_edge_polynomial:   -0.952664 + 0.00061983 * E + 0 * E^2 + 0 * E^3
# Athena.spline_range_energy:    0.000 85.601
# Athena.clamps:                 0 24
# Athena.spline_range_k:         0.000 4.740
# Athena.kweight:                2
# Athena.window:                 hanning
# Athena.phase_correction:       no
# Athena.k_range:                2.740 3.000
# Athena.dk:                     1
# Athena.r_range:                1 3
# Athena.dr:                     0.0
# Athena.window:                 hanning
# Athena.plot_multiplier:        1
# Athena.y_offset:               0
# ///
#------------------------
#   e         xmu        bkg        pre_edge        post_edge        der        sec        i0        chie
  2125.4900       0.10032100       0.10032100       0.75621288E-01   0.36477913      -0.19772500E-02   0.32260000E-03    1.0000000        0.0000000
  2127.4900       0.96366500E-01   0.96366500E-01   0.76860062E-01   0.36601879      -0.13320500E-02   0.50403125E-03    1.0000000        0.0000000
  2129.4900       0.94992800E-01   0.94992800E-01   0.78098836E-01   0.36725845       0.38875000E-04   0.39001875E-03    1.0000000        0.0000000
  2131.4900       0.96522000E-01   0.96522000E-01   0.79337610E-01   0.36849811       0.22802500E-03  -0.36767500E-03    1.0000000        0.0000000
  2133.4900       0.95904900E-01   0.95904900E-01   0.80576383E-01   0.36973777      -0.14318250E-02  -0.59989375E-03    1.0000000        0.0000000
  2135.4900       0.90794700E-01   0.90794700E-01   0.81815157E-01   0.37097743      -0.21715500E-02   0.85075000E-04    1.0000000        0.0000000
  2137.4900       0.87218700E-01   0.87218700E-01   0.83053931E-01   0.37221709      -0.10915250E-02   0.17000417E-03    1.0000000        0.0000000
  2139.4900       0.86428600E-01   0.86428600E-01   0.84292705E-01   0.37345675      -0.14915333E-02  -0.61697652E-03    1.0000000        0.0000000
  2140.4900       0.82744100E-01   0.82744100E-01   0.84912091E-01   0.37407658      -0.29424545E-02  -0.71587879E-03    1.0000000        0.0000000
  2140.5900       0.83191900E-01   0.83191900E-01   0.84974030E-01   0.37413856      -0.22790000E-02   0.36447273E-01    1.0000000        0.0000000
  2140.6900       0.82288300E-01   0.82288300E-01   0.85035969E-01   0.37420055       0.43470000E-02   0.31230000E-01    1.0000000        0.0000000
  2140.7900       0.84061300E-01   0.84061300E-01   0.85097908E-01   0.37426253       0.39670000E-02  -0.59002500E-01    1.0000000        0.0000000
  2140.8900       0.83081700E-01   0.83081700E-01   0.85159846E-01   0.37432451      -0.74535000E-02  -0.30330000E-01    1.0000000        0.0000000
  2140.9900       0.82570600E-01   0.82570600E-01   0.85221785E-01   0.37438650      -0.20990000E-02   0.45930000E-01    1.0000000        0.0000000
  2141.0900       0.82661900E-01   0.82661900E-01   0.85283724E-01   0.37444848       0.17325000E-02   0.35360000E-01    1.0000000        0.0000000
  2141.1900       0.82917100E-01   0.82917100E-01   0.85345662E-01   0.37451046       0.49730000E-02  -0.13920000E-01    1.0000000        0.0000000
  2141.2900       0.83656500E-01   0.83656500E-01   0.85407601E-01   0.37457244      -0.10515000E-02  -0.56960000E-01    1.0000000        0.0000000
  2141.3900       0.82706800E-01   0.82706800E-01   0.85469540E-01   0.37463443      -0.64190000E-02   0.42250000E-02    1.0000000        0.0000000
  2141.4900       0.82372700E-01   0.82372700E-01   0.85531478E-01   0.37469641      -0.20650000E-03   0.42300000E-01    1.0000000        0.0000000
  2141.5900       0.82665500E-01   0.82665500E-01   0.85593417E-01   0.37475839       0.20410000E-02  -0.17627500E-01    1.0000000        0.0000000
  2141.6900       0.82780900E-01   0.82780900E-01   0.85655356E-01   0.37482038      -0.37320000E-02  -0.23502500E-01    1.0000000        0.0000000
  2141.7900       0.81919100E-01   0.81919100E-01   0.85717294E-01   0.37488236      -0.26595000E-02   0.30127500E-01    1.0000000        0.0000000
  2141.8900       0.82249000E-01   0.82249000E-01   0.85779233E-01   0.37494434       0.22935000E-02   0.10417500E-01    1.0000000        0.0000000
  2141.9900       0.82377800E-01   0.82377800E-01   0.85841172E-01   0.37500633      -0.57600000E-03  -0.88900000E-02    1.0000000        0.0000000
  2142.0900       0.82133800E-01   0.82133800E-01   0.85903110E-01   0.37506831       0.51550000E-03   0.18155000E-01    1.0000000        0.0000000
  2142.1900       0.82480900E-01   0.82480900E-01   0.85965049E-01   0.37513029       0.30550000E-02  -0.55500000E-03    1.0000000        0.0000000
  2142.2900       0.82744800E-01   0.82744800E-01   0.86026988E-01   0.37519227       0.40450000E-03  -0.32725000E-02    1.0000000        0.0000000
  2142.3900       0.82561800E-01   0.82561800E-01   0.86088927E-01   0.37525426       0.24005000E-02   0.32650000E-02    1.0000000        0.0000000
  2142.4900       0.83224900E-01   0.83224900E-01   0.86150865E-01   0.37531624       0.10575000E-02  -0.22457500E-01    1.0000000        0.0000000
  2142.5900       0.82773300E-01   0.82773300E-01   0.86212804E-01   0.37537822      -0.20910000E-02   0.15682500E-01    1.0000000        0.0000000
  2142.6900       0.82806700E-01   0.82806700E-01   0.86274743E-01   0.37544021       0.41940000E-02   0.14047500E-01    1.0000000        0.0000000
  2142.7900       0.83612100E-01   0.83612100E-01   0.86336681E-01   0.37550219       0.71850000E-03  -0.20825000E-02    1.0000000        0.0000000
  2142.8900       0.82950400E-01   0.82950400E-01   0.86398620E-01   0.37556417       0.37775000E-02   0.20912500E-01    1.0000000        0.0000000
  2142.9900       0.84367600E-01   0.84367600E-01   0.86460559E-01   0.37562616       0.49010000E-02  -0.36300000E-01    1.0000000        0.0000000
  2143.0900       0.83930600E-01   0.83930600E-01   0.86522497E-01   0.37568814      -0.34825000E-02  -0.14927500E-01    1.0000000        0.0000000
  2143.1900       0.83671100E-01   0.83671100E-01   0.86584436E-01   0.37575012       0.19155000E-02   0.55492500E-01    1.0000000        0.0000000
  2143.2900       0.84313700E-01   0.84313700E-01   0.86646375E-01   0.37581210       0.76160000E-02   0.14437500E-01    1.0000000        0.0000000
  2143.3900       0.85194300E-01   0.85194300E-01   0.86708313E-01   0.37587409       0.48030000E-02  -0.29890000E-01    1.0000000        0.0000000
  2143.4900       0.85274300E-01   0.85274300E-01   0.86770252E-01   0.37593607       0.16380000E-02  -0.23245000E-01    1.0000000        0.0000000
  2143.5900       0.85521900E-01   0.85521900E-01   0.86832191E-01   0.37599805       0.15400000E-03   0.29920000E-01    1.0000000        0.0000000
  2143.6900       0.85305100E-01   0.85305100E-01   0.86894129E-01   0.37606004       0.76220000E-02   0.26542500E-01    1.0000000        0.0000000
  2143.7900       0.87046300E-01   0.87046300E-01   0.86956068E-01   0.37612202       0.54625000E-02  -0.63727500E-01    1.0000000        0.0000000
  2143.8900       0.86397600E-01   0.86397600E-01   0.87018007E-01   0.37618400      -0.51235000E-02  -0.37592500E-01    1.0000000        0.0000000
  2143.9900       0.86021600E-01   0.86021600E-01   0.87079946E-01   0.37624599      -0.20560000E-02   0.50440000E-01    1.0000000        0.0000000
  2144.0900       0.85986400E-01   0.85986400E-01   0.87141884E-01   0.37630797       0.49645000E-02   0.21572500E-01    1.0000000        0.0000000
  2144.1900       0.87014500E-01   0.87014500E-01   0.87203823E-01   0.37636995       0.22585000E-02  -0.57650000E-02    1.0000000        0.0000000
  2144.2900       0.86438100E-01   0.86438100E-01   0.87265762E-01   0.37643193       0.38115000E-02   0.11927500E-01    1.0000000        0.0000000
  2144.3900       0.87776800E-01   0.87776800E-01   0.87327700E-01   0.37649392       0.46440000E-02  -0.63925000E-02    1.0000000        0.0000000
  2144.4900       0.87366900E-01   0.87366900E-01   0.87389639E-01   0.37655590       0.25330000E-02   0.39700000E-02    1.0000000        0.0000000
  2144.5900       0.88283400E-01   0.88283400E-01   0.87451578E-01   0.37661788       0.54380000E-02   0.41575000E-02    1.0000000        0.0000000
  2144.6900       0.88454500E-01   0.88454500E-01   0.87513516E-01   0.37667987       0.33645000E-02   0.21875000E-01    1.0000000        0.0000000
  2144.7900       0.88956300E-01   0.88956300E-01   0.87575455E-01   0.37674185       0.98130000E-02   0.10962500E-01    1.0000000        0.0000000
  2144.8900       0.90417100E-01   0.90417100E-01   0.87637394E-01   0.37680383       0.55570000E-02  -0.28387500E-01    1.0000000        0.0000000
  2144.9900       0.90067700E-01   0.90067700E-01   0.87699332E-01   0.37686582       0.41355000E-02   0.22292500E-01    1.0000000        0.0000000
  2145.0900       0.91244200E-01   0.91244200E-01   0.87761271E-01   0.37692780       0.10015500E-01   0.74950000E-02    1.0000000        0.0000000
  2145.1900       0.92070800E-01   0.92070800E-01   0.87823210E-01   0.37698978       0.56345000E-02  -0.18777500E-01    1.0000000        0.0000000
  2145.2900       0.92371100E-01   0.92371100E-01   0.87885149E-01   0.37705177       0.62600000E-02  -0.29997500E-01    1.0000000        0.0000000
  2145.3900       0.93322800E-01   0.93322800E-01   0.87947087E-01   0.37711375      -0.36500000E-03  -0.81317500E-01    1.0000000        0.0000000
  2145.4900       0.92298100E-01   0.92298100E-01   0.88009026E-01   0.37717573      -0.10003500E-01  -0.26690000E-01    1.0000000        0.0000000
  2145.5900       0.91322100E-01   0.91322100E-01   0.88070965E-01   0.37723771      -0.57030000E-02   0.12512500E-01    1.0000000        0.0000000
  2145.6900       0.91157500E-01   0.91157500E-01   0.88132903E-01   0.37729970      -0.75010000E-02   0.61150000E-02    1.0000000        0.0000000
  2145.7900       0.89821900E-01   0.89821900E-01   0.88194842E-01   0.37736168      -0.44800000E-02   0.24267500E-01    1.0000000        0.0000000
  2145.8900       0.90261500E-01   0.90261500E-01   0.88256781E-01   0.37742366      -0.26475000E-02  -0.98675000E-02    1.0000000        0.0000000
  2145.9900       0.89292400E-01   0.89292400E-01   0.88318719E-01   0.37748565      -0.64535000E-02   0.17410000E-01    1.0000000        0.0000000
  2146.0900       0.88970800E-01   0.88970800E-01   0.88380658E-01   0.37754763       0.83450000E-03   0.55675000E-01    1.0000000        0.0000000
  2146.1900       0.89459300E-01   0.89459300E-01   0.88442597E-01   0.37760961       0.46815000E-02   0.39750000E-02    1.0000000        0.0000000
  2146.2900       0.89907100E-01   0.89907100E-01   0.88504535E-01   0.37767160       0.16295000E-02  -0.17605000E-01    1.0000000        0.0000000
  2146.3900       0.89785200E-01   0.89785200E-01   0.88566474E-01   0.37773358       0.11605000E-02   0.13407500E-01    1.0000000        0.0000000
  2146.4900       0.90139200E-01   0.90139200E-01   0.88628413E-01   0.37779556       0.43110000E-02   0.15672500E-01    1.0000000        0.0000000
  2146.5900       0.90647400E-01   0.90647400E-01   0.88690351E-01   0.37785754       0.42950000E-02   0.15047500E-01    1.0000000        0.0000000
  2146.6900       0.90998200E-01   0.90998200E-01   0.88752290E-01   0.37791953       0.73205000E-02   0.32975000E-02    1.0000000        0.0000000
  2146.7900       0.92111500E-01   0.92111500E-01   0.88814229E-01   0.37798151       0.49545000E-02  -0.40942500E-01    1.0000000        0.0000000
  2146.8900       0.91989100E-01   0.91989100E-01   0.88876168E-01   0.37804349      -0.86800000E-03   0.45625000E-02    1.0000000        0.0000000
  2146.9900       0.91937900E-01   0.91937900E-01   0.88938106E-01   0.37810548       0.58670000E-02   0.38720000E-01    1.0000000        0.0000000
  2147.0900       0.93162500E-01   0.93162500E-01   0.89000045E-01   0.37816746       0.68760000E-02  -0.23132500E-01    1.0000000        0.0000000
  2147.1900       0.93313100E-01   0.93313100E-01   0.89061984E-01   0.37822944       0.12405000E-02  -0.26932500E-01    1.0000000        0.0000000
  2147.2900       0.93410600E-01   0.93410600E-01   0.89123922E-01   0.37829143       0.14895000E-02   0.57812500E-01    1.0000000        0.0000000
  2147.3900       0.93611000E-01   0.93611000E-01   0.89185861E-01   0.37835341       0.12803000E-01   0.60417500E-01    1.0000000        0.0000000
  2147.4900       0.95971200E-01   0.95971200E-01   0.89247800E-01   0.37841539       0.13573000E-01  -0.26485000E-01    1.0000000        0.0000000
  2147.5900       0.96325600E-01   0.96325600E-01   0.89309738E-01   0.37847737       0.75060000E-02  -0.25850000E-01    1.0000000        0.0000000
  2147.6900       0.97472400E-01   0.97472400E-01   0.89371677E-01   0.37853936       0.84030000E-02   0.11030000E-01    1.0000000        0.0000000
  2147.7900       0.98006200E-01   0.98006200E-01   0.89433616E-01   0.37860134       0.97120000E-02  -0.22025000E-02    1.0000000        0.0000000
  2147.8900       0.99414800E-01   0.99414800E-01   0.89495554E-01   0.37866332       0.79625000E-02  -0.13805000E-01    1.0000000        0.0000000
  2147.9900       0.99598700E-01   0.99598700E-01   0.89557493E-01   0.37872531       0.69510000E-02   0.29745000E-01    1.0000000        0.0000000
  2148.0900       0.10080500       0.10080500       0.89619432E-01   0.37878729       0.13911500E-01   0.16870000E-01    1.0000000        0.0000000
  2148.1900       0.10238100       0.10238100       0.89681370E-01   0.37884927       0.10325000E-01  -0.25957500E-01    1.0000000        0.0000000
  2148.2900       0.10287000       0.10287000       0.89743309E-01   0.37891126       0.87200000E-02   0.16950000E-01    1.0000000        0.0000000
  2148.3900       0.10412500       0.10412500       0.89805248E-01   0.37897324       0.13715000E-01   0.41575000E-01    1.0000000        0.0000000
  2148.4900       0.10561300       0.10561300       0.89867187E-01   0.37903522       0.17035000E-01   0.39375000E-01    1.0000000        0.0000000
  2148.5900       0.10753200       0.10753200       0.89929125E-01   0.37909720       0.21590000E-01  -0.71750000E-02    1.0000000        0.0000000
  2148.6900       0.10993100       0.10993100       0.89991064E-01   0.37915919       0.15600000E-01  -0.92750000E-02    1.0000000        0.0000000
  2148.7900       0.11065200       0.11065200       0.90053003E-01   0.37922117       0.19735000E-01   0.53625000E-01    1.0000000        0.0000000
  2148.8900       0.11387800       0.11387800       0.90114941E-01   0.37928315       0.26325000E-01  -0.15250000E-01    1.0000000        0.0000000
  2148.9900       0.11591700       0.11591700       0.90176880E-01   0.37934514       0.16685000E-01  -0.30150000E-01    1.0000000        0.0000000
  2149.0900       0.11721500       0.11721500       0.90238819E-01   0.37940712       0.20295000E-01   0.52325000E-01    1.0000000        0.0000000
  2149.1900       0.11997600       0.11997600       0.90300757E-01   0.37946910       0.27150000E-01   0.88250000E-01    1.0000000        0.0000000
  2149.2900       0.12264500       0.12264500       0.90362696E-01   0.37953109       0.37945000E-01   0.72550000E-01    1.0000000        0.0000000
  2149.3900       0.12756500       0.12756500       0.90424635E-01   0.37959307       0.41660000E-01  -0.41575000E-01    1.0000000        0.0000000
  2149.4900       0.13097700       0.13097700       0.90486573E-01   0.37965505       0.29630000E-01  -0.96500000E-02    1.0000000        0.0000000
  2149.5900       0.13349100       0.13349100       0.90548512E-01   0.37971703       0.39730000E-01   0.10945000        1.0000000        0.0000000
  2149.6900       0.13892300       0.13892300       0.90610451E-01   0.37977902       0.51520000E-01   0.47850000E-01    1.0000000        0.0000000
  2149.7900       0.14379500       0.14379500       0.90672389E-01   0.37984100       0.49300000E-01   0.24875000E-01    1.0000000        0.0000000
  2149.8900       0.14878300       0.14878300       0.90734328E-01   0.37990298       0.56495000E-01   0.88700000E-01    1.0000000        0.0000000
  2149.9900       0.15509400       0.15509400       0.90796267E-01   0.37996497       0.67040000E-01   0.96150000E-01    1.0000000        0.0000000
  2150.0900       0.16219100       0.16219100       0.90858206E-01   0.38002695       0.75725000E-01   0.11965000        1.0000000        0.0000000
  2150.1900       0.17023900       0.17023900       0.90920144E-01   0.38008893       0.90970000E-01   0.18360000        1.0000000        0.0000000
  2150.2900       0.18038500       0.18038500       0.90982083E-01   0.38015092       0.11244500       0.23447500        1.0000000        0.0000000
  2150.3900       0.19272800       0.19272800       0.91044022E-01   0.38021290       0.13786500       0.27925000        1.0000000        0.0000000
  2150.4900       0.20795800       0.20795800       0.91105960E-01   0.38027488       0.16829500       0.39085000        1.0000000        0.0000000
  2150.5900       0.22638700       0.22638700       0.91167899E-01   0.38033686       0.21603500       0.46552500        1.0000000        0.0000000
  2150.6900       0.25116500       0.25116500       0.91229838E-01   0.38039885       0.26140000       0.46925000        1.0000000        0.0000000
  2150.7900       0.27866700       0.27866700       0.91291776E-01   0.38046083       0.30988500       0.68735000        1.0000000        0.0000000
  2150.8900       0.31314200       0.31314200       0.91353715E-01   0.38052281       0.39887000       0.88245000        1.0000000        0.0000000
  2150.9900       0.35844100       0.35844100       0.91415654E-01   0.38058480       0.48637500       0.88720000        1.0000000        0.0000000
  2151.0900       0.41041700       0.41041700       0.91477592E-01   0.38064678       0.57631000        1.0066500        1.0000000        0.0000000
  2151.1900       0.47370300       0.47370300       0.91539531E-01   0.38070876       0.68770500        1.0006750        1.0000000        0.0000000
  2151.2900       0.54795800       0.54795800       0.91601470E-01   0.38077075       0.77644500        1.0842750        1.0000000        0.0000000
  2151.3900       0.62899200       0.62899200       0.91663408E-01   0.38083273       0.90456000        1.2859250        1.0000000        0.0000000
  2151.4900       0.72887000       0.72887000       0.91725347E-01   0.38089471        1.0336300       0.89065000        1.0000000        0.0000000
  2151.5900       0.83571800       0.83571800       0.91787286E-01   0.38095669        1.0826900       0.38815000        1.0000000        0.0000000
  2151.6900       0.94540800       0.94540800       0.91849225E-01   0.38101868        1.1112600       0.88100000E-01    1.0000000        0.0000000
  2151.7900        1.0579700        1.0579700       0.91911163E-01   0.38108066        1.1003100      -0.31355000        1.0000000        0.0000000
  2151.8900        1.1654700        1.1654700       0.91973102E-01   0.38114264        1.0485500      -0.62680000        1.0000000        0.0000000
  2151.9900        1.2676800        1.2676800       0.92035041E-01   0.38120463       0.97495000      -0.77725000        1.0000000        0.0000000
  2152.0900        1.3604600       0.73818782       0.92096979E-01   0.38126661       0.89310000      -0.41500000        1.0000000        2.1519281
  2152.1900        1.4463000       0.73732801       0.92158918E-01   0.38132859       0.89195000      -0.26925000        1.0000000        2.4517515
  2152.2900        1.5388500       0.73646333       0.92220857E-01   0.38139058       0.83925000       -1.4830000        1.0000000        2.7747961
  2152.3900        1.6141500       0.73559385       0.92282795E-01   0.38145256       0.59535000       -2.2865000        1.0000000        3.0382037
  2152.4900        1.6579200       0.73471960       0.92344734E-01   0.38151454       0.38195000       -2.1857500        1.0000000        3.1925915
  2152.5900        1.6905400       0.73384063       0.92406673E-01   0.38157653       0.15820000       -1.6732500        1.0000000        3.3084369
  2152.6900        1.6895600       0.73295699       0.92468611E-01   0.38163851       0.47300000E-01  -0.64075000        1.0000000        3.3081037
  2152.7900        1.7000000       0.73206871       0.92530550E-01   0.38170049       0.30050000E-01   0.18850000        1.0000000        3.3472789
  2152.8900        1.6955700       0.73117583       0.92592489E-01   0.38176247       0.85000000E-01    1.1045000        1.0000000        3.3350469
  2152.9900        1.7170000       0.73027842       0.92654427E-01   0.38182446       0.25095000        1.1730000        1.0000000        3.4122590
  2153.0900        1.7457600       0.72937650       0.92716366E-01   0.38188644       0.31960000       0.34500000E-01    1.0000000        3.5148352
  2153.1900        1.7809200       0.72847012       0.92778305E-01   0.38194842       0.25785000       -1.5132500        1.0000000        3.6395592
  2153.2900        1.7973300       0.72755933       0.92840244E-01   0.38201041       0.16950000E-01   -2.0410000        1.0000000        3.6994576
  2153.3900        1.7843100       0.72664418       0.92902182E-01   0.38207239      -0.15035000       -1.9072500        1.0000000        3.6575969
  2153.4900        1.7672600       0.72572469       0.92964121E-01   0.38213437      -0.36450000       -2.3495000        1.0000000        3.6018147
  2153.5900        1.7114100       0.72480093       0.93026060E-01   0.38219636      -0.62025000       -1.7962500        1.0000000        3.4118700
  2153.6900        1.6432100       0.72387293       0.93087998E-01   0.38225834      -0.72375000       -1.4735000        1.0000000        3.1792314
  2153.7900        1.5666600       0.72294074       0.93149937E-01   0.38232032      -0.91495000       -2.0130000        1.0000000        2.9177315
  2153.8900        1.4602200       0.72200440       0.93211876E-01   0.38238230       -1.1263500       -1.3832500        1.0000000        2.5528811
  2153.9900        1.3413900       0.72106396       0.93273814E-01   0.38244429       -1.1916000      -0.37125000        1.0000000        2.1451980
  2154.0900        1.2219000       0.72011945       0.93335753E-01   0.38250627       -1.2006000       0.12320000        1.0000000        1.7352465
  2154.1900        1.1012700       0.71917093       0.93397692E-01   0.38256825       -1.1669600       0.70627500        1.0000000        1.3213667
  2154.2900       0.98850800       0.71821844       0.93459630E-01   0.38263024       -1.0593450        1.0605750        1.0000000       0.93470945
  2154.3900       0.88940100       0.71726202       0.93521569E-01   0.38269222      -0.95484500        1.1616750        1.0000000       0.59528725
  2154.4900       0.79753900       0.71630172       0.93583508E-01   0.38275420      -0.82701000        1.3029500        1.0000000       0.28093299
  2154.5900       0.72399900       0.71533758       0.93645446E-01   0.38281619      -0.69425500        1.1593500        1.0000000       0.29952734E-01
  2154.6900       0.65868800       0.71436964       0.93707385E-01   0.38287817      -0.59514000        1.1330250        1.0000000      -0.19255705
  2154.7900       0.60497100       0.71339796       0.93769324E-01   0.38294015      -0.46765000        1.2206500        1.0000000      -0.37495974
  2154.8900       0.56515800       0.71242256       0.93831263E-01   0.38300213      -0.35101000       0.99635000        1.0000000      -0.50926710
  2154.9900       0.53476900       0.71144351       0.93893201E-01   0.38306412      -0.26838000       0.73802500        1.0000000      -0.61097193
  2155.0900       0.51148200       0.71046083       0.93955140E-01   0.38312610      -0.20340500       0.65640000        1.0000000      -0.68810426
  2155.1900       0.49408800       0.70947458       0.94017079E-01   0.38318808      -0.13710000       0.51812500        1.0000000      -0.74484519
  2155.2900       0.48406200       0.70848481       0.94079017E-01   0.38325007      -0.99780000E-01   0.37475000        1.0000000      -0.77609405
  2155.3900       0.47413200       0.70749154       0.94140956E-01   0.38331205      -0.62150000E-01   0.34267500        1.0000000      -0.80699887
  2155.4900       0.47163200       0.70649483       0.94202895E-01   0.38337403      -0.31245000E-01   0.18627500        1.0000000      -0.81219753
  2155.5900       0.46788300       0.70549473       0.94264833E-01   0.38343602      -0.24895000E-01   0.17245000        1.0000000      -0.82170370
  2155.6900       0.46665300       0.70449127       0.94326772E-01   0.38349800       0.32450000E-02   0.24882500        1.0000000      -0.82248713
  2155.7900       0.46853200       0.70348451       0.94388711E-01   0.38355998       0.24870000E-01   0.14145000        1.0000000      -0.81250763
  2155.8900       0.47162700       0.70247447       0.94450649E-01   0.38362196       0.31535000E-01  -0.31925000E-01    1.0000000      -0.79831170
  2155.9900       0.47483900       0.70146122       0.94512588E-01   0.38368395       0.18485000E-01  -0.85250000E-01    1.0000000      -0.78370002
  2156.0900       0.47532400       0.70044479       0.94574527E-01   0.38374593       0.14485000E-01   0.11380000        1.0000000      -0.77850781
  2156.1900       0.47773600       0.69942523       0.94636465E-01   0.38380791       0.41245000E-01   0.23302500        1.0000000      -0.76664085
  2156.2900       0.48357300       0.69840258       0.94698404E-01   0.38386990       0.61090000E-01  -0.53550000E-01    1.0000000      -0.74291896
  2156.3900       0.48995400       0.69737688       0.94760343E-01   0.38393188       0.30535000E-01  -0.34027500        1.0000000      -0.71730528
  2156.4900       0.48968000       0.69634819       0.94822282E-01   0.38399386      -0.69650000E-02  -0.14825000        1.0000000      -0.71469541
  2156.5900       0.48856100       0.69531653       0.94884220E-01   0.38405585       0.88500000E-03   0.12562500        1.0000000      -0.71499748
  2156.6900       0.48985700       0.69428197       0.94946159E-01   0.38411783       0.18160000E-01   0.11420000        1.0000000      -0.70693797
  2156.7900       0.49219300       0.69324454       0.95008098E-01   0.38417981       0.23725000E-01   0.38600000E-01    1.0000000      -0.69527204
  2156.8900       0.49460200       0.69220428       0.95070036E-01   0.38424179       0.25880000E-01   0.34275000E-01    1.0000000      -0.68334390
  2156.9900       0.49736900       0.69116125       0.95131975E-01   0.38430378       0.30580000E-01   0.29325000E-01    1.0000000      -0.67016812
  2157.0900       0.50071800       0.69011548       0.95193914E-01   0.38436576       0.31745000E-01   0.31150000E-01    1.0000000      -0.65497022
  2157.1900       0.50371800       0.68906702       0.95255852E-01   0.38442774       0.36810000E-01   0.59150000E-01    1.0000000      -0.64096992
  2157.2900       0.50808000       0.68801591       0.95317791E-01   0.38448973       0.43575000E-01   0.11775000E-01    1.0000000      -0.62225043
  2157.3900       0.51243300       0.68696220       0.95379730E-01   0.38455171       0.39165000E-01  -0.56775000E-01    1.0000000      -0.60355305
  2157.4900       0.51591300       0.68590592       0.95441668E-01   0.38461369       0.32220000E-01  -0.70725000E-01    1.0000000      -0.58786582
  2157.5900       0.51887700       0.68484714       0.95503607E-01   0.38467568       0.25020000E-01  -0.26450000E-01    1.0000000      -0.57395432
  2157.6900       0.52091700       0.68378588       0.95565546E-01   0.38473766       0.26930000E-01   0.11400000        1.0000000      -0.56322962
  2157.7900       0.52426300       0.68272220       0.95627485E-01   0.38479964       0.47820000E-01   0.12182500        1.0000000      -0.54798016
  2157.8900       0.53048100       0.68165614       0.95689423E-01   0.38486162       0.51295000E-01   0.83250000E-01    1.0000000      -0.52279056
  2157.9900       0.53452200       0.68058774       0.95751362E-01   0.38492361       0.64470000E-01  -0.12225000E-01    1.0000000      -0.50512134
  2158.0900       0.54337500       0.67951704       0.95813301E-01   0.38498559       0.48850000E-01  -0.27010000        1.0000000      -0.47080343
  2158.1900       0.54429200       0.67844409       0.95875239E-01   0.38504757       0.10450000E-01  -0.94400000E-01    1.0000000      -0.46392185
  2158.2900       0.54546500       0.67736894       0.95937178E-01   0.38510956       0.29970000E-01   0.99550000E-01    1.0000000      -0.45614734
  2158.3900       0.55028600       0.67629163       0.95999117E-01   0.38517154       0.30360000E-01  -0.11370000        1.0000000      -0.43574992
  2158.4900       0.55153700       0.67521220       0.96061055E-01   0.38523352       0.72300000E-02  -0.11502500        1.0000000      -0.42769088
  2158.5900       0.55173200       0.67413070       0.96122994E-01   0.38529551       0.73550000E-02  -0.38400000E-01    1.0000000      -0.42327651
  2158.6900       0.55300800       0.67304717       0.96184933E-01   0.38535749      -0.45000000E-03  -0.16260000        1.0000000      -0.41511682
  2158.7900       0.55164200       0.67196165       0.96246871E-01   0.38541947      -0.25165000E-01  -0.18412500        1.0000000      -0.41608679
  2158.8900       0.54797500       0.67087419       0.96308810E-01   0.38548146      -0.37275000E-01  -0.76575000E-01    1.0000000      -0.42500730
  2158.9900       0.54418700       0.66978484       0.96370749E-01   0.38554344      -0.40480000E-01  -0.23375000E-01    1.0000000      -0.43433970
  2159.0900       0.53987900       0.66869363       0.96432687E-01   0.38560542      -0.41950000E-01  -0.95750000E-02    1.0000000      -0.44546395
  2159.1900       0.53579700       0.66760062       0.96494626E-01   0.38566740      -0.42395000E-01  -0.42525000E-01    1.0000000      -0.45580039
  2159.2900       0.53140000       0.66650584       0.96556565E-01   0.38572939      -0.50455000E-01  -0.14950000E-01    1.0000000      -0.46722006
  2159.3900       0.52570600       0.66540934       0.96618504E-01   0.38579137      -0.45385000E-01  -0.19750000E-02    1.0000000      -0.48311904
  2159.4900       0.52232300       0.66431117       0.96680442E-01   0.38585335      -0.50850000E-01   0.94000000E-02    1.0000000      -0.49102038
  2159.5900       0.51553600       0.66321136       0.96742381E-01   0.38591534      -0.43505000E-01   0.12520000        1.0000000      -0.51068771
  2159.6900       0.51362200       0.66210997       0.96804320E-01   0.38597732      -0.25810000E-01   0.13532500        1.0000000      -0.51349784
  2159.7900       0.51037400       0.66100703       0.96866258E-01   0.38603930      -0.16440000E-01   0.19222500        1.0000000      -0.52091585
  2159.8900       0.51033400       0.65990259       0.96928197E-01   0.38610129       0.12635000E-01   0.19897500        1.0000000      -0.51723485
  2159.9900       0.51290100       0.65879670       0.96990136E-01   0.38616327       0.23355000E-01  -0.98000000E-02    1.0000000      -0.50453333
  2160.0900       0.51500500       0.65768940       0.97052074E-01   0.38622525       0.10675000E-01  -0.18442500        1.0000000      -0.49342808
  2160.1900       0.51503600       0.65658073       0.97114013E-01   0.38628723      -0.13530000E-01  -0.33250000E-01    1.0000000      -0.48948690
  2160.2900       0.51229900       0.65547074       0.97175952E-01   0.38634922       0.40250000E-02   0.13265000        1.0000000      -0.49511339
  2160.3900       0.51584100       0.65435947       0.97237890E-01   0.38641120       0.13000000E-01   0.75400000E-01    1.0000000      -0.47902155
  2160.4900       0.51489900       0.65324697       0.97299829E-01   0.38647318       0.19105000E-01   0.11938333E-01    1.0000000      -0.47843192
  2160.9900       0.52730400       0.64766748       0.97609523E-01   0.38678310       0.20163000E-01  -0.30380000E-02    1.0000000      -0.41623836
  2161.4900       0.53506200       0.64206376       0.97919216E-01   0.38709301       0.16067000E-01   0.33830000E-02    1.0000000      -0.37003114
  2161.9900       0.54337100       0.63644132       0.98228909E-01   0.38740293       0.23546000E-01   0.18069000E-01    1.0000000      -0.32185375
  2162.4900       0.55860800       0.63080569       0.98538603E-01   0.38771284       0.34136000E-01   0.92280000E-02    1.0000000      -0.24967246
  2162.9900       0.57750700       0.62516237       0.98848296E-01   0.38802276       0.32774000E-01  -0.86650000E-02    1.0000000      -0.16480077
  2163.4900       0.59138200       0.61951690       0.99157990E-01   0.38833267       0.25471000E-01  -0.22360000E-01    1.0000000      -0.97295507E-01
  2163.9900       0.60297800       0.61387479       0.99467683E-01   0.38864259       0.10414000E-01  -0.35054000E-01    1.0000000      -0.37683046E-01
  2164.4900       0.60179600       0.60824156       0.99777377E-01   0.38895250      -0.95830000E-02  -0.34255000E-01    1.0000000      -0.22289888E-01
  2164.9900       0.59339500       0.60262272       0.10008707       0.38926242      -0.23841000E-01  -0.26257000E-01    1.0000000      -0.31911107E-01
  2165.4900       0.57795500       0.59702380       0.10039676       0.38957233      -0.35840000E-01  -0.47430000E-02    1.0000000      -0.65943314E-01
  2165.9900       0.55755500       0.59145032       0.10070646       0.38988225      -0.28584000E-01   0.33265000E-01    1.0000000      -0.11721604
  2166.4900       0.54937100       0.58590778       0.10101615       0.39019216      -0.25750000E-02   0.55804000E-01    1.0000000      -0.12635071
  2166.9900       0.55498000       0.58040172       0.10132584       0.39050208       0.27220000E-01   0.53803000E-01    1.0000000      -0.87912852E-01
  2167.4900       0.57659100       0.57493766       0.10163554       0.39081199       0.51228000E-01   0.25080000E-01    1.0000000       0.57175607E-02
  2167.9900       0.60620800       0.56952110       0.10194523       0.39112191       0.52300000E-01  -0.17192000E-01    1.0000000       0.12686985
  2168.4900       0.62889100       0.56415757       0.10225492       0.39143182       0.34036000E-01  -0.32303000E-01    1.0000000       0.22385975
  2168.9900       0.64024400       0.55885258       0.10256462       0.39174174       0.19997000E-01  -0.19107000E-01    1.0000000       0.28146603
  2169.4900       0.64888800       0.55361166       0.10287431       0.39205165       0.14929000E-01  -0.64350000E-02    1.0000000       0.32948254
  2169.9900       0.65517300       0.54844033       0.10318400       0.39236157       0.13562000E-01  -0.40450000E-02    1.0000000       0.36910058
  2170.4900       0.66245000       0.54334410       0.10349370       0.39267148       0.10884000E-01  -0.11667000E-01    1.0000000       0.41188941
  2170.9900       0.66605700       0.53832850       0.10380339       0.39298140       0.18950000E-02  -0.18386000E-01    1.0000000       0.44170792
  2171.4900       0.66434500       0.53339903       0.10411308       0.39329131      -0.75020000E-02  -0.13115000E-01    1.0000000       0.45283449
  2171.9900       0.65855500       0.52856122       0.10442278       0.39360123      -0.11220000E-01  -0.34320000E-02    1.0000000       0.44954164
  2172.4900       0.65312500       0.52382060       0.10473247       0.39391115      -0.10934000E-01  -0.90900000E-03    1.0000000       0.44715766
  2172.9900       0.64762100       0.51918267       0.10504217       0.39422106      -0.12129000E-01  -0.66460000E-02    1.0000000       0.44416264
  2173.4900       0.64099600       0.51465261       0.10535186       0.39453098      -0.17580000E-01  -0.18660000E-01    1.0000000       0.43691796
  2173.9900       0.63004100       0.51023177       0.10566155       0.39484089      -0.30789000E-01  -0.26604000E-01    1.0000000       0.41432166
  2174.4900       0.61020700       0.50591913       0.10597125       0.39515081      -0.44184000E-01  -0.21295000E-01    1.0000000       0.36064605
  2174.9900       0.58585700       0.50171360       0.10628094       0.39546072      -0.52084000E-01  -0.74050000E-02    1.0000000       0.29098286
  2175.4900       0.55812300       0.49761414       0.10659063       0.39577064      -0.51589000E-01   0.10129000E-01    1.0000000       0.20925042
  2175.9900       0.53426800       0.49361967       0.10690033       0.39608055      -0.41955000E-01   0.13034000E-01    1.0000000       0.14056917
  2176.4900       0.51616800       0.48972913       0.10721002       0.39639047      -0.38555000E-01   0.72830000E-02    1.0000000       0.91430340E-01
  2176.9900       0.49571300       0.48594144       0.10751971       0.39670038      -0.34672000E-01   0.13009000E-01    1.0000000       0.33791794E-01
  2177.4900       0.48149600       0.48225555       0.10782941       0.39701030      -0.25546000E-01   0.97080000E-02    1.0000000      -0.26266581E-02
  2177.9900       0.47016700       0.47867039       0.10813910       0.39732021      -0.24964000E-01  -0.14740000E-02    1.0000000      -0.29406225E-01
  2178.4900       0.45653200       0.47518488       0.10844879       0.39763013      -0.27020000E-01   0.15750000E-02    1.0000000      -0.64504998E-01
  2178.9900       0.44314700       0.47179798       0.10875849       0.39794004      -0.23389000E-01   0.73990000E-02    1.0000000      -0.99080187E-01
  2179.4900       0.43314300       0.46850860       0.10906818       0.39824996      -0.19621000E-01   0.67200000E-02    1.0000000      -0.12230055
  2179.9900       0.42352600       0.46531569       0.10937787       0.39855987      -0.16669000E-01   0.73100000E-02    1.0000000      -0.14451618
  2180.4900       0.41647400       0.46221817       0.10968757       0.39886979      -0.12311000E-01   0.46090000E-02    1.0000000      -0.15819148
  2180.9900       0.41121500       0.45921498       0.10999726       0.39917970      -0.12060000E-01   0.50870000E-02    1.0000000      -0.16599248
  2181.4900       0.40441400       0.45630506       0.11030695       0.39948962      -0.72240000E-02   0.11582000E-01    1.0000000      -0.17944852
  2181.9900       0.40399100       0.45348733       0.11061665       0.39979953      -0.47800000E-03   0.55870000E-02    1.0000000      -0.17116713
  2182.4900       0.40393600       0.45076074       0.11092634       0.40010945      -0.16370000E-02  -0.31680000E-02    1.0000000      -0.16192828
  2182.9900       0.40235400       0.44812421       0.11123603       0.40041936      -0.36460000E-02  -0.26580000E-02    1.0000000      -0.15828154
  2183.4900       0.40029000       0.44557668       0.11154573       0.40072928      -0.42950000E-02   0.41430000E-02    1.0000000      -0.15660941
  2183.9900       0.39805900       0.44311709       0.11185542       0.40103919       0.49700000E-03   0.49340000E-02    1.0000000      -0.15581889
  2184.4900       0.40078700       0.44074436       0.11216511       0.40134911       0.63900000E-03   0.30900000E-03    1.0000000      -0.13817966
  2184.9900       0.39869800       0.43845743       0.11247481       0.40165902       0.80600000E-03   0.30080000E-02    1.0000000      -0.13749519
  2185.4900       0.40159300       0.43625524       0.11278450       0.40196894       0.36470000E-02   0.22800000E-03    1.0000000      -0.11986819
  2185.9900       0.40234500       0.43413671       0.11309419       0.40227885       0.10340000E-02  -0.36150000E-02    1.0000000      -0.10994141
  2186.4900       0.40262700       0.43210079       0.11340389       0.40258877       0.32000000E-04  -0.24210000E-02    1.0000000      -0.10192562
  2186.9900       0.40237700       0.43014641       0.11371358       0.40289868      -0.13870000E-02   0.48800000E-03    1.0000000      -0.96031553E-01
  2187.4900       0.40124000       0.42827249       0.11402327       0.40320860       0.52000000E-03   0.41360000E-02    1.0000000      -0.93483166E-01
  2187.9900       0.40289700       0.42647798       0.11433297       0.40351851       0.27490000E-02   0.19960000E-02    1.0000000      -0.81547222E-01
  2188.4900       0.40398900       0.42476180       0.11464266       0.40382843       0.25160000E-02  -0.10360000E-02    1.0000000      -0.71836054E-01
  2188.9900       0.40541300       0.42312290       0.11495236       0.40413834       0.17130000E-02  -0.16970000E-02    1.0000000      -0.61243989E-01
  2189.4900       0.40570200       0.42156020       0.11526205       0.40444826       0.81900000E-03   0.16700000E-03    1.0000000      -0.54840487E-01
  2189.9900       0.40623200       0.42007264       0.11557174       0.40475817       0.18800000E-02   0.11400000E-03    1.0000000      -0.47863407E-01
  2190.4900       0.40758200       0.41865916       0.11588144       0.40506809       0.93300000E-03  -0.46530000E-02    1.0000000      -0.38306779E-01
  2190.9900       0.40716500       0.41731868       0.11619113       0.40537800      -0.27730000E-02  -0.77500000E-03    1.0000000      -0.35113220E-01
  2191.4900       0.40480900       0.41605014       0.11650082       0.40568792       0.15800000E-03   0.42100000E-02    1.0000000      -0.38873852E-01
  2191.9900       0.40732300       0.41485247       0.11681052       0.40599783       0.14370000E-02   0.16320000E-02    1.0000000      -0.26038252E-01
  2192.4900       0.40624600       0.41372461       0.11712021       0.40630775       0.17900000E-02   0.17300000E-03    1.0000000      -0.25862377E-01
  2192.9900       0.40911300       0.41266550       0.11742990       0.40661766       0.16100000E-02  -0.40240000E-02    1.0000000      -0.12285170E-01
  2193.4900       0.40785600       0.41167406       0.11773960       0.40692758      -0.22340000E-02  -0.18030000E-02    1.0000000      -0.13203523E-01
  2193.9900       0.40687900       0.41074923       0.11804929       0.40723749      -0.19300000E-03   0.40100000E-03    1.0000000      -0.13383933E-01
  2194.4900       0.40766300       0.40988994       0.11835898       0.40754741      -0.18330000E-02  -0.63400000E-03    1.0000000      -0.77011519E-02
  2194.9900       0.40504600       0.40909513       0.11866868       0.40785732      -0.82700000E-03  -0.70900000E-03    1.0000000      -0.14002607E-01
  2195.4900       0.40683600       0.40836373       0.11897837       0.40816724      -0.25420000E-02   0.17290000E-02    1.0000000      -0.52831574E-02
  2195.9900       0.40250400       0.40769467       0.11928806       0.40847715       0.90200000E-03   0.41100000E-02    1.0000000      -0.17950273E-01
  2196.4900       0.40773800       0.40708690       0.11959776       0.40878707       0.15680000E-02  -0.45040000E-02    1.0000000       0.22516322E-02
  2196.9900       0.40407200       0.40653933       0.11990745       0.40909698      -0.36020000E-02  -0.91000000E-03    1.0000000      -0.85324730E-02
  2197.4900       0.40413600       0.40605091       0.12021714       0.40940690       0.65800000E-03   0.48010000E-02    1.0000000      -0.66221109E-02
  2197.9900       0.40473000       0.40562057       0.12052684       0.40971681       0.11990000E-02  -0.77400000E-03    1.0000000      -0.30797648E-02
  2198.4900       0.40533500       0.40524725       0.12083653       0.41002673      -0.11600000E-03  -0.20380000E-02    1.0000000       0.30345796E-03
  2198.9900       0.40461400       0.40492987       0.12114622       0.41033664      -0.83900000E-03   0.20410000E-02    1.0000000      -0.10923397E-02
  2199.4900       0.40449600       0.40466737       0.12145592       0.41064656       0.19250000E-02   0.15640000E-02    1.0000000      -0.59264499E-03
  2199.9900       0.40653900       0.40445869       0.12176561       0.41095647       0.72500000E-03  -0.91233333E-03    1.0000000       0.71940707E-02
  2200.4900       0.40522100       0.40430276       0.12207530       0.41126639       0.10126667E-02  -0.26000000E-04    1.0000000       0.31754347E-02
  2201.4900       0.40805800       0.40414488       0.12269469       0.41188622       0.68600000E-03  -0.60833333E-03    1.0000000       0.13532275E-01
  2202.4900       0.40659300       0.40418519       0.12331408       0.41250605      -0.20400000E-03   0.33850000E-03    1.0000000       0.83266192E-02
  2203.4900       0.40765000       0.40441518       0.12393346       0.41312588       0.13630000E-02   0.54475000E-03    1.0000000       0.11186570E-01
  2204.4900       0.40931900       0.40482631       0.12455285       0.41374571       0.88550000E-03  -0.46700000E-03    1.0000000       0.15536506E-01
  2205.4900       0.40942100       0.40541006       0.12517224       0.41436554       0.42900000E-03   0.43025000E-03    1.0000000       0.13870551E-01
  2206.4900       0.41017700       0.40615788       0.12579163       0.41498537       0.17460000E-02  -0.18650000E-03    1.0000000       0.13898818E-01
  2207.4900       0.41291300       0.40706126       0.12641101       0.41560520       0.56000000E-04  -0.20207500E-02    1.0000000       0.20236346E-01
  2208.4900       0.41028900       0.40811167       0.12703040       0.41622503      -0.22955000E-02  -0.11300000E-02    1.0000000       0.75296049E-02
  2209.4900       0.40832200       0.40930056       0.12764979       0.41684486      -0.22040000E-02   0.93200000E-03    1.0000000      -0.33840504E-02
  2210.4900       0.40588100       0.41061943       0.12826917       0.41746469      -0.43150000E-03   0.18710000E-02    1.0000000      -0.16386323E-01
  2211.4900       0.40745900       0.41205972       0.12888856       0.41808452       0.15380000E-02   0.11810000E-02    1.0000000      -0.15910122E-01
  2212.4900       0.40895700       0.41361293       0.12950795       0.41870435       0.19305000E-02  -0.89100000E-03    1.0000000      -0.16101022E-01
  2213.4900       0.41132000       0.41527050       0.13012733       0.41932418      -0.24400000E-03  -0.97150000E-03    1.0000000      -0.13661548E-01
  2214.4900       0.40846900       0.41702393       0.13074672       0.41994401      -0.12500000E-04   0.84175000E-03    1.0000000      -0.29584470E-01
  2215.4900       0.41129500       0.41886467       0.13136611       0.42056384       0.14395000E-02   0.13797500E-02    1.0000000      -0.26177271E-01
  2216.4900       0.41134800       0.42078420       0.13198549       0.42118367       0.27470000E-02   0.15857500E-02    1.0000000      -0.32632060E-01
  2217.4900       0.41678900       0.42277399       0.13260488       0.42180350       0.46110000E-02   0.20350000E-03    1.0000000      -0.20697150E-01
  2218.4900       0.42057000       0.42482550       0.13322427       0.42242333       0.31540000E-02  -0.39600000E-03    1.0000000      -0.14716282E-01
  2219.4900       0.42309700       0.42693021       0.13384366       0.42304316       0.38190000E-02   0.11100000E-02    1.0000000      -0.13255939E-01
  2220.4900       0.42820800       0.42907960       0.13446304       0.42366299       0.53740000E-02   0.91825000E-03    1.0000000      -0.30141382E-02
  2221.4900       0.43384500       0.43126512       0.13508243       0.42428282       0.56555000E-02   0.71850000E-03    1.0000000       0.89216879E-02
  2222.4900       0.43951900       0.43347825       0.13570182       0.42490265       0.68110000E-02   0.31400000E-03    1.0000000       0.20889987E-01
  2223.4900       0.44746700       0.43571046       0.13632120       0.42552248       0.62835000E-02  -0.11867500E-02    1.0000000       0.40656199E-01
  2224.4900       0.45208600       0.43795323       0.13694059       0.42614231       0.44375000E-02  -0.19597500E-02    1.0000000       0.48873650E-01
  2225.4900       0.45634200       0.44019801       0.13755998       0.42676214       0.23640000E-02  -0.13307500E-02    1.0000000       0.55828792E-01
  2226.4900       0.45681400       0.44243629       0.13817936       0.42738197       0.17760000E-02  -0.50225000E-03    1.0000000       0.49720694E-01
  2227.4900       0.45989400       0.44465952       0.13879875       0.42800180       0.13595000E-02  -0.27450000E-03    1.0000000       0.52683529E-01
  2228.4900       0.45953300       0.44685920       0.13941814       0.42862163       0.12270000E-02  -0.28750000E-04    1.0000000       0.43828273E-01
  2229.4900       0.46234800       0.44902677       0.14003752       0.42924146       0.13020000E-02  -0.37625000E-03    1.0000000       0.46067188E-01
  2230.4900       0.46213700       0.45115372       0.14065691       0.42986129       0.47450000E-03  -0.38450000E-03    1.0000000       0.37982149E-01
  2231.4900       0.46329700       0.45323151       0.14127630       0.43048112       0.53300000E-03   0.57400000E-03    1.0000000       0.34808263E-01
  2232.4900       0.46320300       0.45525161       0.14189568       0.43110095       0.16225000E-02   0.69900000E-03    1.0000000       0.27497309E-01
  2233.4900       0.46654200       0.45720550       0.14251507       0.43172078       0.19310000E-02  -0.78500000E-04    1.0000000       0.32287265E-01
  2234.4900       0.46706500       0.45908465       0.14313446       0.43234061       0.14655000E-02  -0.13602500E-02    1.0000000       0.27597471E-01
  2235.4900       0.46947300       0.46088052       0.14375385       0.43296044      -0.78950000E-03  -0.12445000E-02    1.0000000       0.29714320E-01
  2236.4900       0.46548600       0.46258459       0.14437323       0.43358027      -0.10235000E-02   0.10935000E-02    1.0000000       0.10033595E-01
  2237.4900       0.46742600       0.46418832       0.14499262       0.43420010       0.13975000E-02   0.93925000E-03    1.0000000       0.11196461E-01
  2238.4900       0.46828100       0.46828100       0.14561201       0.43481993       0.85500000E-03  -0.54250000E-03    1.0000000        0.0000000
