# XDI/1.0 Athena/0.9.26
# Element.edge:                  K
# Element.symbol:                P
# Column.1:                      energy eV
# Column.2:                      xmu
# Column.3:                      bkg
# Column.4:                      pre_edge
# Column.5:                      post_edge
# Column.6:                      der
# Column.7:                      sec
# Column.8:                      i0
# Column.9:                      chi(e)
# Athena.e0:                     2152
# Athena.eshift:                 0.49
# Athena.rbkg:                   1.0
# Athena.importance:             1
# Athena.standard:               None
# Athena.bkg_kweight:            2
# Athena.edge_step:              0.4559596
# Athena.fixed_step:             no
# Athena.pre_edge_range:         -23.400 -5.000
# Athena.pre_edge_line:          -1.886445 + 0.000923461 * E
# Athena.normalization_range:    30.000 65.600
# Athena.post_edge_polynomial:   -1.449738 + 0.000932408 * E + 0 * E^2 + 0 * E^3
# Athena.spline_range_energy:    0.000 85.601
# Athena.clamps:                 0 24
# Athena.spline_range_k:         0.000 4.740
# Athena.kweight:                2
# Athena.window:                 hanning
# Athena.phase_correction:       no
# Athena.k_range:                2.740 3.000
# Athena.dk:                     1
# Athena.r_range:                1 3
# Athena.dr:                     0.0
# Athena.window:                 hanning
# Athena.plot_multiplier:        1
# Athena.y_offset:               0
# ///
#------------------------
#   e         xmu        bkg        pre_edge        post_edge        der        sec        i0        chie
  2125.4900       0.98000100E-01   0.98000100E-01   0.76362942E-01   0.53208538      -0.14324500E-02   0.23137500E-04    1.0000000        0.0000000
  2127.4900       0.95135200E-01   0.95135200E-01   0.78209865E-01   0.53395020      -0.13861750E-02   0.18550000E-04    1.0000000        0.0000000
  2129.4900       0.92455400E-01   0.92455400E-01   0.80056788E-01   0.53581501      -0.13582500E-02   0.15495625E-03    1.0000000        0.0000000
  2131.4900       0.89702200E-01   0.89702200E-01   0.81903710E-01   0.53767983      -0.76635000E-03   0.18893750E-03    1.0000000        0.0000000
  2133.4900       0.89390000E-01   0.89390000E-01   0.83750633E-01   0.53954465      -0.60250000E-03   0.52768750E-04    1.0000000        0.0000000
  2135.4900       0.87292200E-01   0.87292200E-01   0.85597556E-01   0.54140946      -0.55527500E-03   0.25021250E-03    1.0000000        0.0000000
  2137.4900       0.87168900E-01   0.87168900E-01   0.87444479E-01   0.54327428       0.39835000E-03   0.26954375E-03    1.0000000        0.0000000
  2139.4900       0.88885600E-01   0.88885600E-01   0.89291402E-01   0.54513909       0.52290000E-03  -0.40196515E-03    1.0000000        0.0000000
  2140.4900       0.88737600E-01   0.88737600E-01   0.90214863E-01   0.54607150      -0.80754545E-03  -0.18412727E-02    1.0000000        0.0000000
  2140.5900       0.87997300E-01   0.87997300E-01   0.90307209E-01   0.54616474      -0.15025000E-02   0.16835227E-01    1.0000000        0.0000000
  2140.6900       0.88437100E-01   0.88437100E-01   0.90399555E-01   0.54625798       0.25595000E-02   0.15417500E-01    1.0000000        0.0000000
  2140.7900       0.88509200E-01   0.88509200E-01   0.90491901E-01   0.54635122       0.15810000E-02  -0.36222500E-01    1.0000000        0.0000000
  2140.8900       0.88753300E-01   0.88753300E-01   0.90584248E-01   0.54644447      -0.46850000E-02  -0.26142500E-01    1.0000000        0.0000000
  2140.9900       0.87572200E-01   0.87572200E-01   0.90676594E-01   0.54653771      -0.36475000E-02   0.49110000E-01    1.0000000        0.0000000
  2141.0900       0.88023800E-01   0.88023800E-01   0.90768940E-01   0.54663095       0.51370000E-02   0.21262500E-01    1.0000000        0.0000000
  2141.1900       0.88599600E-01   0.88599600E-01   0.90861286E-01   0.54672419       0.60500000E-03  -0.40635000E-01    1.0000000        0.0000000
  2141.2900       0.88144800E-01   0.88144800E-01   0.90953632E-01   0.54681743      -0.29900000E-02   0.16525000E-02    1.0000000        0.0000000
  2141.3900       0.88001600E-01   0.88001600E-01   0.91045978E-01   0.54691067       0.93550000E-03   0.23645000E-01    1.0000000        0.0000000
  2141.4900       0.88331900E-01   0.88331900E-01   0.91138324E-01   0.54700391       0.17390000E-02  -0.41800000E-02    1.0000000        0.0000000
  2141.5900       0.88349400E-01   0.88349400E-01   0.91230671E-01   0.54709715       0.99500000E-04  -0.13622500E-01    1.0000000        0.0000000
  2141.6900       0.88351800E-01   0.88351800E-01   0.91323017E-01   0.54719039      -0.98550000E-03   0.14625000E-01    1.0000000        0.0000000
  2141.7900       0.88152300E-01   0.88152300E-01   0.91415363E-01   0.54728363       0.30245000E-02   0.17600000E-02    1.0000000        0.0000000
  2141.8900       0.88956700E-01   0.88956700E-01   0.91507709E-01   0.54737687      -0.63350000E-03  -0.22410000E-01    1.0000000        0.0000000
  2141.9900       0.88025600E-01   0.88025600E-01   0.91600055E-01   0.54747011      -0.14575000E-02   0.45207500E-01    1.0000000        0.0000000
  2142.0900       0.88665200E-01   0.88665200E-01   0.91692401E-01   0.54756336       0.84080000E-02  -0.27800000E-02    1.0000000        0.0000000
  2142.1900       0.89707200E-01   0.89707200E-01   0.91784747E-01   0.54765660      -0.20135000E-02  -0.41892500E-01    1.0000000        0.0000000
  2142.2900       0.88262500E-01   0.88262500E-01   0.91877094E-01   0.54774984       0.29500000E-04   0.35140000E-01    1.0000000        0.0000000
  2142.3900       0.89713100E-01   0.89713100E-01   0.91969440E-01   0.54784308       0.50145000E-02  -0.29175000E-01    1.0000000        0.0000000
  2142.4900       0.89265400E-01   0.89265400E-01   0.92061786E-01   0.54793632      -0.58055000E-02  -0.58340000E-01    1.0000000        0.0000000
  2142.5900       0.88552000E-01   0.88552000E-01   0.92154132E-01   0.54802956      -0.66535000E-02   0.34497500E-01    1.0000000        0.0000000
  2142.6900       0.87934700E-01   0.87934700E-01   0.92246478E-01   0.54812280       0.10940000E-02   0.76427500E-01    1.0000000        0.0000000
  2142.7900       0.88770800E-01   0.88770800E-01   0.92338824E-01   0.54821604       0.86320000E-02   0.32002500E-01    1.0000000        0.0000000
  2142.8900       0.89661100E-01   0.89661100E-01   0.92431170E-01   0.54830928       0.74945000E-02  -0.51225000E-01    1.0000000        0.0000000
  2142.9900       0.90269700E-01   0.90269700E-01   0.92523517E-01   0.54840252      -0.16130000E-02  -0.25202500E-01    1.0000000        0.0000000
  2143.0900       0.89338500E-01   0.89338500E-01   0.92615863E-01   0.54849576       0.24540000E-02   0.26975000E-01    1.0000000        0.0000000
  2143.1900       0.90760500E-01   0.90760500E-01   0.92708209E-01   0.54858900       0.37820000E-02  -0.23572500E-01    1.0000000        0.0000000
  2143.2900       0.90094900E-01   0.90094900E-01   0.92800555E-01   0.54868224      -0.22605000E-02  -0.74600000E-02    1.0000000        0.0000000
  2143.3900       0.90308400E-01   0.90308400E-01   0.92892901E-01   0.54877549       0.22900000E-02   0.62100000E-02    1.0000000        0.0000000
  2143.4900       0.90552900E-01   0.90552900E-01   0.92985247E-01   0.54886873      -0.10185000E-02   0.15775000E-02    1.0000000        0.0000000
  2143.5900       0.90104700E-01   0.90104700E-01   0.93077593E-01   0.54896197       0.26055000E-02   0.31540000E-01    1.0000000        0.0000000
  2143.6900       0.91074000E-01   0.91074000E-01   0.93169940E-01   0.54905521       0.52895000E-02  -0.33325000E-01    1.0000000        0.0000000
  2143.7900       0.91162600E-01   0.91162600E-01   0.93262286E-01   0.54914845      -0.40595000E-02  -0.39822500E-01    1.0000000        0.0000000
  2143.8900       0.90262100E-01   0.90262100E-01   0.93354632E-01   0.54924169      -0.26750000E-02   0.63680000E-01    1.0000000        0.0000000
  2143.9900       0.90627600E-01   0.90627600E-01   0.93446978E-01   0.54933493       0.86765000E-02   0.44795000E-01    1.0000000        0.0000000
  2144.0900       0.91997400E-01   0.91997400E-01   0.93539324E-01   0.54942817       0.62840000E-02  -0.40275000E-01    1.0000000        0.0000000
  2144.1900       0.91884400E-01   0.91884400E-01   0.93631670E-01   0.54952141       0.62150000E-03  -0.94675000E-02    1.0000000        0.0000000
  2144.2900       0.92121700E-01   0.92121700E-01   0.93724016E-01   0.54961465       0.43905000E-02   0.65175000E-02    1.0000000        0.0000000
  2144.3900       0.92762500E-01   0.92762500E-01   0.93816363E-01   0.54970789       0.19250000E-02  -0.81325000E-02    1.0000000        0.0000000
  2144.4900       0.92506700E-01   0.92506700E-01   0.93908709E-01   0.54980113       0.27640000E-02   0.31155000E-01    1.0000000        0.0000000
  2144.5900       0.93315300E-01   0.93315300E-01   0.94001055E-01   0.54989438       0.81560000E-02   0.95375000E-02    1.0000000        0.0000000
  2144.6900       0.94137900E-01   0.94137900E-01   0.94093401E-01   0.54998762       0.46715000E-02   0.23975000E-02    1.0000000        0.0000000
  2144.7900       0.94249600E-01   0.94249600E-01   0.94185747E-01   0.55008086       0.86355000E-02   0.20625000E-02    1.0000000        0.0000000
  2144.8900       0.95865000E-01   0.95865000E-01   0.94278093E-01   0.55017410       0.50840000E-02  -0.57187500E-01    1.0000000        0.0000000
  2144.9900       0.95266400E-01   0.95266400E-01   0.94370439E-01   0.55026734      -0.28020000E-02  -0.81700000E-02    1.0000000        0.0000000
  2145.0900       0.95304600E-01   0.95304600E-01   0.94462786E-01   0.55036058       0.34500000E-02   0.31442500E-01    1.0000000        0.0000000
  2145.1900       0.95956400E-01   0.95956400E-01   0.94555132E-01   0.55045382       0.34865000E-02  -0.75300000E-02    1.0000000        0.0000000
  2145.2900       0.96001900E-01   0.96001900E-01   0.94647478E-01   0.55054706       0.19440000E-02  -0.16825000E-01    1.0000000        0.0000000
  2145.3900       0.96345200E-01   0.96345200E-01   0.94739824E-01   0.55064030       0.12150000E-03   0.12032500E-01    1.0000000        0.0000000
  2145.4900       0.96026200E-01   0.96026200E-01   0.94832170E-01   0.55073354       0.43505000E-02   0.45392500E-01    1.0000000        0.0000000
  2145.5900       0.97215300E-01   0.97215300E-01   0.94924516E-01   0.55082678       0.92000000E-02   0.52600000E-02    1.0000000        0.0000000
  2145.6900       0.97866200E-01   0.97866200E-01   0.95016862E-01   0.55092002       0.54025000E-02  -0.28725000E-01    1.0000000        0.0000000
  2145.7900       0.98295800E-01   0.98295800E-01   0.95109208E-01   0.55101326       0.34550000E-02  -0.38322500E-01    1.0000000        0.0000000
  2145.8900       0.98557200E-01   0.98557200E-01   0.95201555E-01   0.55110651      -0.22620000E-02  -0.68850000E-02    1.0000000        0.0000000
  2145.9900       0.97843400E-01   0.97843400E-01   0.95293901E-01   0.55119975       0.20780000E-02   0.39842500E-01    1.0000000        0.0000000
  2146.0900       0.98972800E-01   0.98972800E-01   0.95386247E-01   0.55129299       0.57065000E-02   0.11940000E-01    1.0000000        0.0000000
  2146.1900       0.98984700E-01   0.98984700E-01   0.95478593E-01   0.55138623       0.44660000E-02   0.47500000E-03    1.0000000        0.0000000
  2146.2900       0.99866000E-01   0.99866000E-01   0.95570939E-01   0.55147947       0.58015000E-02   0.14745000E-01    1.0000000        0.0000000
  2146.3900       0.10014500       0.10014500       0.95663285E-01   0.55157271       0.74150000E-02   0.45925000E-02    1.0000000        0.0000000
  2146.4900       0.10134900       0.10134900       0.95755631E-01   0.55166595       0.67200000E-02  -0.21400000E-01    1.0000000        0.0000000
  2146.5900       0.10148900       0.10148900       0.95847978E-01   0.55175919       0.31350000E-02   0.11500000E-02    1.0000000        0.0000000
  2146.6900       0.10197600       0.10197600       0.95940324E-01   0.55185243       0.69500000E-02   0.35300000E-01    1.0000000        0.0000000
  2146.7900       0.10287900       0.10287900       0.96032670E-01   0.55194567       0.10195000E-01  -0.20750000E-02    1.0000000        0.0000000
  2146.8900       0.10401500       0.10401500       0.96125016E-01   0.55203891       0.65350000E-02  -0.11175000E-01    1.0000000        0.0000000
  2146.9900       0.10418600       0.10418600       0.96217362E-01   0.55213215       0.79600000E-02   0.10250000E-01    1.0000000        0.0000000
  2147.0900       0.10560700       0.10560700       0.96309708E-01   0.55222540       0.85850000E-02   0.59250000E-02    1.0000000        0.0000000
  2147.1900       0.10590300       0.10590300       0.96402054E-01   0.55231864       0.91450000E-02   0.27550000E-01    1.0000000        0.0000000
  2147.2900       0.10743600       0.10743600       0.96494401E-01   0.55241188       0.14095000E-01   0.25575000E-01    1.0000000        0.0000000
  2147.3900       0.10872200       0.10872200       0.96586747E-01   0.55250512       0.14260000E-01   0.44250000E-02    1.0000000        0.0000000
  2147.4900       0.11028800       0.11028800       0.96679093E-01   0.55259836       0.14980000E-01  -0.30100000E-01    1.0000000        0.0000000
  2147.5900       0.11171800       0.11171800       0.96771439E-01   0.55269160       0.82400000E-02   0.11400000E-01    1.0000000        0.0000000
  2147.6900       0.11193600       0.11193600       0.96863785E-01   0.55278484       0.17260000E-01   0.36250000E-01    1.0000000        0.0000000
  2147.7900       0.11517000       0.11517000       0.96956131E-01   0.55287808       0.15490000E-01  -0.23000000E-01    1.0000000        0.0000000
  2147.8900       0.11503400       0.11503400       0.97048477E-01   0.55297132       0.12660000E-01   0.18575000E-01    1.0000000        0.0000000
  2147.9900       0.11770200       0.11770200       0.97140824E-01   0.55306456       0.19205000E-01   0.29550000E-01    1.0000000        0.0000000
  2148.0900       0.11887500       0.11887500       0.97233170E-01   0.55315780       0.18570000E-01  -0.70000000E-03    1.0000000        0.0000000
  2148.1900       0.12141600       0.12141600       0.97325516E-01   0.55325104       0.19065000E-01   0.13125000E-01    1.0000000        0.0000000
  2148.2900       0.12268800       0.12268800       0.97417862E-01   0.55334428       0.21195000E-01   0.37775000E-01    1.0000000        0.0000000
  2148.3900       0.12565500       0.12565500       0.97510208E-01   0.55343753       0.26620000E-01  -0.15150000E-01    1.0000000        0.0000000
  2148.4900       0.12801200       0.12801200       0.97602554E-01   0.55353077       0.18165000E-01  -0.19950000E-01    1.0000000        0.0000000
  2148.5900       0.12928800       0.12928800       0.97694900E-01   0.55362401       0.22630000E-01   0.60025000E-01    1.0000000        0.0000000
  2148.6900       0.13253800       0.13253800       0.97787247E-01   0.55371725       0.30170000E-01   0.50975000E-01    1.0000000        0.0000000
  2148.7900       0.13532200       0.13532200       0.97879593E-01   0.55381049       0.32825000E-01   0.20275000E-01    1.0000000        0.0000000
  2148.8900       0.13910300       0.13910300       0.97971939E-01   0.55390373       0.34225000E-01   0.16200000E-01    1.0000000        0.0000000
  2148.9900       0.14216700       0.14216700       0.98064285E-01   0.55399697       0.36065000E-01   0.13425000E-01    1.0000000        0.0000000
  2149.0900       0.14631600       0.14631600       0.98156631E-01   0.55409021       0.36910000E-01   0.52525000E-01    1.0000000        0.0000000
  2149.1900       0.14954900       0.14954900       0.98248977E-01   0.55418345       0.46570000E-01   0.87150000E-01    1.0000000        0.0000000
  2149.2900       0.15563000       0.15563000       0.98341323E-01   0.55427669       0.54340000E-01  -0.17625000E-01    1.0000000        0.0000000
  2149.3900       0.16041700       0.16041700       0.98433670E-01   0.55436993       0.43045000E-01   0.23875000E-01    1.0000000        0.0000000
  2149.4900       0.16423900       0.16423900       0.98526016E-01   0.55446317       0.59115000E-01   0.17250000        1.0000000        0.0000000
  2149.5900       0.17224000       0.17224000       0.98618362E-01   0.55455642       0.77545000E-01   0.74425000E-01    1.0000000        0.0000000
  2149.6900       0.17974800       0.17974800       0.98710708E-01   0.55464966       0.74000000E-01   0.12475000E-01    1.0000000        0.0000000
  2149.7900       0.18704000       0.18704000       0.98803054E-01   0.55474290       0.80040000E-01   0.83450000E-01    1.0000000        0.0000000
  2149.8900       0.19575600       0.19575600       0.98895400E-01   0.55483614       0.90690000E-01   0.13140000        1.0000000        0.0000000
  2149.9900       0.20517800       0.20517800       0.98987746E-01   0.55492938       0.10632000       0.17332500        1.0000000        0.0000000
  2150.0900       0.21702000       0.21702000       0.99080093E-01   0.55502262       0.12535500       0.24537500        1.0000000        0.0000000
  2150.1900       0.23024900       0.23024900       0.99172439E-01   0.55511586       0.15539500       0.32170000        1.0000000        0.0000000
  2150.2900       0.24809900       0.24809900       0.99264785E-01   0.55520910       0.18969500       0.35265000        1.0000000        0.0000000
  2150.3900       0.26818800       0.26818800       0.99357131E-01   0.55530234       0.22592500       0.52577500        1.0000000        0.0000000
  2150.4900       0.29328400       0.29328400       0.99449477E-01   0.55539558       0.29485000       0.73267500        1.0000000        0.0000000
  2150.5900       0.32715800       0.32715800       0.99541823E-01   0.55548882       0.37246000       0.85282500        1.0000000        0.0000000
  2150.6900       0.36777600       0.36777600       0.99634169E-01   0.55558206       0.46541500       0.94497500        1.0000000        0.0000000
  2150.7900       0.42024100       0.42024100       0.99726516E-01   0.55567530       0.56145500       0.76955000        1.0000000        0.0000000
  2150.8900       0.48006700       0.48006700       0.99818862E-01   0.55576855       0.61932500       0.40097500        1.0000000        0.0000000
  2150.9900       0.54410600       0.54410600       0.99911208E-01   0.55586179       0.64165000       0.13592500        1.0000000        0.0000000
  2151.0900       0.60839700       0.60839700       0.10000355       0.55595503       0.64651000      -0.94950000E-01    1.0000000        0.0000000
  2151.1900       0.67340800       0.67340800       0.10009590       0.55604827       0.62266000      -0.22685000        1.0000000        0.0000000
  2151.2900       0.73292900       0.73292900       0.10018825       0.55614151       0.60114000       0.22575000        1.0000000        0.0000000
  2151.3900       0.79363600       0.79363600       0.10028059       0.55623475       0.66781000        1.0639750        1.0000000        0.0000000
  2151.4900       0.86649100       0.86649100       0.10037294       0.55632799       0.81393500        2.0454250        1.0000000        0.0000000
  2151.5900       0.95642300       0.95642300       0.10046528       0.55642123        1.0768950        2.8270000        1.0000000        0.0000000
  2151.6900        1.0818700        1.0818700       0.10055763       0.55651447        1.3793350        2.6470250        1.0000000        0.0000000
  2151.7900        1.2322900        1.2322900       0.10064998       0.55660771        1.6063000        1.9220750        1.0000000        0.0000000
  2151.8900        1.4031300        1.4031300       0.10074232       0.55670095        1.7637500        1.1740000        1.0000000        0.0000000
  2151.9900        1.5850400        1.5850400       0.10083467       0.55679419        1.8411000      -0.45450000        1.0000000        0.0000000
  2152.0900        1.7713500        1.0662687       0.10092702       0.55688744        1.6728500       -2.1665000        1.0000000        1.5463679
  2152.1900        1.9196100        1.0646052       0.10101936       0.55698068        1.4078000       -2.2137500        1.0000000        1.8751766
  2152.2900        2.0529100        1.0629403       0.10111171       0.55707392        1.2301000       -2.1200000        1.0000000        2.1711786
  2152.3900        2.1656300        1.0612739       0.10120405       0.55716716       0.98380000       -2.6065000        1.0000000        2.4220482
  2152.4900        2.2496700        1.0596061       0.10129640       0.55726040       0.70880000       -2.4642500        1.0000000        2.6100205
  2152.5900        2.3073900        1.0579369       0.10138875       0.55735364       0.49095000       -1.5995000        1.0000000        2.7402715
  2152.6900        2.3478600        1.0562664       0.10148109       0.55744688       0.38890000      -0.83300000        1.0000000        2.8326931
  2152.7900        2.3851700        1.0545945       0.10157344       0.55754012       0.32435000       -1.3625000        1.0000000        2.9181872
  2152.8900        2.4127300        1.0529214       0.10166578       0.55763336       0.11640000       -2.4687500        1.0000000        2.9823005
  2152.9900        2.4084500        1.0512471       0.10175813       0.55772660      -0.16940000       -2.0957500        1.0000000        2.9765858
  2153.0900        2.3788500        1.0495716       0.10185048       0.55781984      -0.30275000       -1.2602500        1.0000000        2.9153425
  2153.1900        2.3479000        1.0478949       0.10194282       0.55791308      -0.42145000       -1.7557500        1.0000000        2.8511409
  2153.2900        2.2945600        1.0462171       0.10203517       0.55800632      -0.65390000       -2.0467500        1.0000000        2.7378366
  2153.3900        2.2171200        1.0445382       0.10212752       0.55809957      -0.83080000       -1.3457500        1.0000000        2.5716791
  2153.4900        2.1284000        1.0428583       0.10221986       0.55819281      -0.92305000       -1.5922500        1.0000000        2.3807849
  2153.5900        2.0325100        1.0411773       0.10231221       0.55828605       -1.1492500       -1.8377500        1.0000000        2.1741679
  2153.6900        1.8985500        1.0394953       0.10240455       0.55837929       -1.2906000      -0.31525000        1.0000000        1.8840587
  2153.7900        1.7743900        1.0378124       0.10249690       0.55847253       -1.2123000       0.27475000        1.0000000        1.6154448
  2153.8900        1.6560900        1.0361286       0.10258925       0.55856577       -1.2356500      -0.34325000        1.0000000        1.3596849
  2153.9900        1.5272600        1.0344440       0.10268159       0.55865901       -1.2809500       0.61250000E-01    1.0000000        1.0808327
  2154.0900        1.3999000        1.0327584       0.10277394       0.55875225       -1.2234000        1.0575000        1.0000000       0.80520635
  2154.1900        1.2825800        1.0310721       0.10286628       0.55884549       -1.0694500        1.6555000        1.0000000       0.55160126
  2154.2900        1.1860100        1.0293850       0.10295863       0.55893873      -0.89230000        1.4250000        1.0000000       0.34350627
  2154.3900        1.1041200        1.0276972       0.10305098       0.55903197      -0.78445000        1.1960500        1.0000000       0.16760872
  2154.4900        1.0291200        1.0260087       0.10314332       0.55912521      -0.65309000        1.1313250        1.0000000       0.68236890E-02
  2154.5900       0.97350200        1.0243195       0.10323567       0.55921846      -0.55818500       0.84402500        1.0000000      -0.11145174
  2154.6900       0.91748300        1.0226297       0.10332801       0.55931170      -0.48428500       0.95030000        1.0000000      -0.23060527
  2154.7900       0.87664500        1.0209393       0.10342036       0.55940494      -0.36812500       0.94975000        1.0000000      -0.31646288
  2154.8900       0.84385800        1.0192483       0.10351271       0.55949818      -0.29433500       0.55467500        1.0000000      -0.38466202
  2154.9900       0.81777800        1.0175569       0.10360505       0.55959142      -0.25719000       0.55762500        1.0000000      -0.43815038
  2155.0900       0.79242000        1.0158649       0.10369740       0.55968466      -0.18281000       0.74015000        1.0000000      -0.49005421
  2155.1900       0.78121600        1.0141725       0.10378975       0.55977790      -0.10916000       0.37210000        1.0000000      -0.51091484
  2155.2900       0.77058800        1.0124797       0.10388209       0.55987114      -0.10839000       0.13592500        1.0000000      -0.53051130
  2155.3900       0.75953800        1.0107865       0.10397444       0.55996438      -0.81975000E-01   0.31012500        1.0000000      -0.55103245
  2155.4900       0.75419300        1.0090930       0.10406678       0.56005762      -0.46365000E-01   0.38992500        1.0000000      -0.55904079
  2155.5900       0.75026500        1.0073992       0.10415913       0.56015086      -0.39900000E-02   0.26225000        1.0000000      -0.56394073
  2155.6900       0.75339500        1.0057051       0.10425148       0.56024410       0.60850000E-02   0.70600000E-01    1.0000000      -0.55336064
  2155.7900       0.75148200        1.0040108       0.10434382       0.56033734       0.10130000E-01   0.21822500        1.0000000      -0.55384023
  2155.8900       0.75542100        1.0023162       0.10443617       0.56043059       0.49730000E-01   0.32440000        1.0000000      -0.54148492
  2155.9900       0.76142800        1.0006216       0.10452851       0.56052383       0.75010000E-01   0.37575000E-01    1.0000000      -0.52459377
  2156.0900       0.77042300       0.99892676       0.10462086       0.56061707       0.57245000E-01  -0.10045000        1.0000000      -0.50114913
  2156.1900       0.77287700       0.99723186       0.10471321       0.56071031       0.54920000E-01   0.18375000        1.0000000      -0.49204986
  2156.2900       0.78140700       0.99553691       0.10480555       0.56080355       0.93995000E-01   0.29777500        1.0000000      -0.46962473
  2156.3900       0.79167600       0.99384193       0.10489790       0.56089679       0.11447500       0.60775000E-01    1.0000000      -0.44338563
  2156.4900       0.80430200       0.99214698       0.10499025       0.56099003       0.10615000      -0.14010000        1.0000000      -0.41197725
  2156.5900       0.81290600       0.99045208       0.10508259       0.56108327       0.86455000E-01  -0.20912500        1.0000000      -0.38938994
  2156.6900       0.82159300       0.98875727       0.10517494       0.56117651       0.64325000E-01  -0.13377500        1.0000000      -0.36662080
  2156.7900       0.82577100       0.98706259       0.10526728       0.56126975       0.59700000E-01  -0.17075000E-01    1.0000000      -0.35374096
  2156.8900       0.83353300       0.98536806       0.10535963       0.56136299       0.60910000E-01  -0.24872500        1.0000000      -0.33300113
  2156.9900       0.83795300       0.98367373       0.10545198       0.56145623       0.99550000E-02  -0.30367500        1.0000000      -0.31959132
  2157.0900       0.83552400       0.98197964       0.10554432       0.56154948       0.17500000E-03   0.37925000E-01    1.0000000      -0.32120310
  2157.1900       0.83798800       0.98028580       0.10563667       0.56164272       0.17540000E-01  -0.10995000        1.0000000      -0.31208424
  2157.2900       0.83903200       0.97859228       0.10572901       0.56173596      -0.21815000E-01  -0.25080000        1.0000000      -0.30608036
  2157.3900       0.83362500       0.97689909       0.10582136       0.56182920      -0.32620000E-01  -0.96375000E-01    1.0000000      -0.31422541
  2157.4900       0.83250800       0.97520628       0.10591371       0.56192244      -0.41090000E-01  -0.14820000        1.0000000      -0.31296254
  2157.5900       0.82540700       0.97351387       0.10600605       0.56201568      -0.62260000E-01  -0.10277500        1.0000000      -0.32482455
  2157.6900       0.82005600       0.97182192       0.10609840       0.56210892      -0.61645000E-01  -0.90125000E-01    1.0000000      -0.33284948
  2157.7900       0.81307800       0.97013044       0.10619075       0.56220216      -0.80285000E-01  -0.71675000E-01    1.0000000      -0.34444376
  2157.8900       0.80399900       0.96843948       0.10628309       0.56229540      -0.75980000E-01  -0.56750000E-01    1.0000000      -0.36064705
  2157.9900       0.79788200       0.96674908       0.10637544       0.56238864      -0.91635000E-01   0.74300000E-01    1.0000000      -0.37035535
  2158.0900       0.78567200       0.96505926       0.10646778       0.56248188      -0.61120000E-01   0.26205000        1.0000000      -0.39342797
  2158.1900       0.78565800       0.96337007       0.10656013       0.56257512      -0.39225000E-01  -0.85400000E-01    1.0000000      -0.38975398
  2158.2900       0.77782700       0.96168154       0.10665248       0.56266836      -0.78200000E-01  -0.95325000E-01    1.0000000      -0.40322550
  2158.3900       0.77001800       0.95999370       0.10674482       0.56276161      -0.58290000E-01   0.17292500        1.0000000      -0.41665029
  2158.4900       0.76616900       0.95830660       0.10683717       0.56285485      -0.43615000E-01   0.80525000E-01    1.0000000      -0.42139171
  2158.5900       0.76129500       0.95662026       0.10692951       0.56294809      -0.42185000E-01  -0.70725000E-01    1.0000000      -0.42838282
  2158.6900       0.75773200       0.95493473       0.10702186       0.56304133      -0.57760000E-01  -0.18025000E-01    1.0000000      -0.43250044
  2158.7900       0.74974300       0.95325003       0.10711421       0.56313457      -0.45790000E-01   0.25205000        1.0000000      -0.44632689
  2158.8900       0.74857400       0.95156621       0.10720655       0.56322781      -0.73500000E-02   0.68375000E-01    1.0000000      -0.44519780
  2158.9900       0.74827300       0.94988330       0.10729890       0.56332105      -0.32115000E-01  -0.22057500        1.0000000      -0.44216702
  2159.0900       0.74215100       0.94820133       0.10739125       0.56341429      -0.51465000E-01   0.76225000E-01    1.0000000      -0.45190480
  2159.1900       0.73798000       0.94652035       0.10748359       0.56350753      -0.16870000E-01   0.18600000        1.0000000      -0.45736585
  2159.2900       0.73877700       0.94484038       0.10757594       0.56360077      -0.14265000E-01   0.19950000E-01    1.0000000      -0.45193342
  2159.3900       0.73512700       0.94316147       0.10766828       0.56369401      -0.12880000E-01   0.36500000E-02    1.0000000      -0.45625636
  2159.4900       0.73620100       0.94148364       0.10776063       0.56378725      -0.13535000E-01  -0.23225000E-01    1.0000000      -0.45022112
  2159.5900       0.73242000       0.93980694       0.10785298       0.56388049      -0.17525000E-01   0.77325000E-01    1.0000000      -0.45483622
  2159.6900       0.73269600       0.93813140       0.10794532       0.56397374       0.19300000E-02   0.45950000E-01    1.0000000      -0.45055615
  2159.7900       0.73280600       0.93645705       0.10803767       0.56406698      -0.83350000E-02  -0.11917500        1.0000000      -0.44664276
  2159.8900       0.73102900       0.93478394       0.10813001       0.56416022      -0.21905000E-01  -0.52375000E-01    1.0000000      -0.44687060
  2159.9900       0.72842500       0.93311209       0.10822236       0.56425346      -0.18810000E-01   0.23065000        1.0000000      -0.44891498
  2160.0900       0.72726700       0.93144155       0.10831471       0.56434670       0.24225000E-01   0.22772500        1.0000000      -0.44779088
  2160.1900       0.73327000       0.92977234       0.10840705       0.56443994       0.26735000E-01  -0.15902500        1.0000000      -0.43096437
  2160.2900       0.73261400       0.92810451       0.10849940       0.56453318      -0.75800000E-02  -0.25175000        1.0000000      -0.42874525
  2160.3900       0.73175400       0.92643809       0.10859174       0.56462642      -0.23615000E-01   0.18375000E-01    1.0000000      -0.42697662
  2160.4900       0.72789100       0.92477311       0.10868409       0.56471966      -0.39050000E-02   0.54371667E-01    1.0000000      -0.43179728
  2160.9900       0.72941100       0.91647116       0.10914582       0.56518587       0.90080000E-02   0.21809000E-01    1.0000000      -0.41025600
  2161.4900       0.73689900       0.90821071       0.10960755       0.56565207       0.17904000E-01   0.12232000E-01    1.0000000      -0.37571686
  2161.9900       0.74731500       0.89999621       0.11006928       0.56611827       0.21240000E-01  -0.36410000E-02    1.0000000      -0.33485688
  2162.4900       0.75813900       0.89183213       0.11053101       0.56658448       0.14263000E-01  -0.12176000E-01    1.0000000      -0.29321266
  2162.9900       0.76157800       0.88372293       0.11099274       0.56705068       0.90640000E-02   0.13052000E-01    1.0000000      -0.26788541
  2163.4900       0.76720300       0.87567307       0.11145448       0.56751689       0.27315000E-01   0.55230000E-01    1.0000000      -0.23789404
  2163.9900       0.78889300       0.86768702       0.11191621       0.56798309       0.64294000E-01   0.55673000E-01    1.0000000      -0.17280921
  2164.4900       0.83149700       0.85976923       0.11237794       0.56844929       0.82988000E-01   0.11230000E-02    1.0000000      -0.62006008E-01
  2164.9900       0.87188100       0.85192418       0.11283967       0.56891550       0.65417000E-01  -0.48926000E-01    1.0000000       0.43768830E-01
  2165.4900       0.89691400       0.84415632       0.11330140       0.56938170       0.34062000E-01  -0.56900000E-01    1.0000000       0.11570691
  2165.9900       0.90594300       0.83647012       0.11376313       0.56984791       0.85170000E-02  -0.24209000E-01    1.0000000       0.15236631
  2166.4900       0.90543100       0.82887003       0.11422486       0.57031411       0.98530000E-02   0.11052000E-01    1.0000000       0.16791174
  2166.9900       0.91579600       0.82136053       0.11468659       0.57078031       0.19569000E-01   0.69680000E-02    1.0000000       0.20711369
  2167.4900       0.92500000       0.81394606       0.11514832       0.57124652       0.16821000E-01  -0.11810000E-01    1.0000000       0.24356091
  2167.9900       0.93261700       0.80663111       0.11561005       0.57171272       0.77590000E-02  -0.17553000E-01    1.0000000       0.27630934
  2168.4900       0.93275900       0.79942012       0.11607178       0.57217893      -0.73200000E-03  -0.10894000E-01    1.0000000       0.29243574
  2168.9900       0.93188500       0.79231756       0.11653351       0.57264513      -0.31350000E-02  -0.72880000E-02    1.0000000       0.30609608
  2169.4900       0.92962400       0.78532789       0.11699524       0.57311133      -0.80200000E-02  -0.13143000E-01    1.0000000       0.31646688
  2169.9900       0.92386500       0.77845558       0.11745697       0.57357754      -0.16278000E-01  -0.15231000E-01    1.0000000       0.31890857
  2170.4900       0.91334600       0.77170508       0.11791871       0.57404374      -0.23251000E-01  -0.25210000E-02    1.0000000       0.31064357
  2170.9900       0.90061400       0.76508087       0.11838044       0.57450995      -0.18799000E-01  -0.45600000E-03    1.0000000       0.29724812
  2171.4900       0.89454700       0.75858739       0.11884217       0.57497615      -0.23707000E-01  -0.86370000E-02    1.0000000       0.29818345
  2171.9900       0.87690700       0.75222912       0.11930390       0.57544235      -0.27436000E-01  -0.65310000E-02    1.0000000       0.27344062
  2172.4900       0.86711100       0.74601052       0.11976563       0.57590856      -0.30238000E-01  -0.12115000E-01    1.0000000       0.26559475
  2172.9900       0.84666900       0.73993605       0.12022736       0.57637476      -0.39551000E-01  -0.67010000E-02    1.0000000       0.23408422
  2173.4900       0.82756000       0.73400986       0.12068909       0.57684097      -0.36939000E-01   0.28990000E-02    1.0000000       0.20517198
  2173.9900       0.80973000       0.72823269       0.12115082       0.57730717      -0.36652000E-01  -0.11250000E-02    1.0000000       0.17873801
  2174.4900       0.79090800       0.72260313       0.12161255       0.57777337      -0.38064000E-01  -0.21630000E-02    1.0000000       0.14980465
  2174.9900       0.77166600       0.71711975       0.12207428       0.57823958      -0.38815000E-01   0.21830000E-02    1.0000000       0.11962956
  2175.4900       0.75209300       0.71178113       0.12253601       0.57870578      -0.35881000E-01   0.53340000E-02    1.0000000       0.88411058E-01
  2175.9900       0.73578500       0.70658582       0.12299774       0.57917199      -0.33481000E-01   0.20640000E-02    1.0000000       0.64038955E-01
  2176.4900       0.71861200       0.70153241       0.12345947       0.57963819      -0.33817000E-01   0.25650000E-02    1.0000000       0.37458570E-01
  2176.9900       0.70196800       0.69661944       0.12392120       0.58010439      -0.30916000E-01   0.58890000E-02    1.0000000       0.11730330E-01
  2177.4900       0.68769600       0.69184551       0.12438294       0.58057060      -0.27928000E-01   0.59040000E-02    1.0000000      -0.91005985E-02
  2177.9900       0.67404000       0.68720916       0.12484467       0.58103680      -0.25012000E-01   0.12838000E-01    1.0000000      -0.28882295E-01
  2178.4900       0.66268400       0.68270897       0.12530640       0.58150301      -0.15090000E-01   0.11387000E-01    1.0000000      -0.43918308E-01
  2178.9900       0.65895000       0.67834352       0.12576813       0.58196921      -0.13625000E-01   0.69820000E-02    1.0000000      -0.42533413E-01
  2179.4900       0.64905900       0.67411136       0.12622986       0.58243541      -0.81080000E-02   0.11913000E-01    1.0000000      -0.54944251E-01
  2179.9900       0.65084200       0.67001106       0.12669159       0.58290162      -0.17120000E-02   0.74900000E-03    1.0000000      -0.42041148E-01
  2180.4900       0.64734700       0.66604120       0.12715332       0.58336782      -0.73590000E-02  -0.26320000E-02    1.0000000      -0.40999695E-01
  2180.9900       0.64348300       0.66220035       0.12761505       0.58383403      -0.43440000E-02   0.24560000E-02    1.0000000      -0.41050448E-01
  2181.4900       0.64300300       0.65848706       0.12807678       0.58430023      -0.49030000E-02  -0.95760000E-02    1.0000000      -0.33959275E-01
  2181.9900       0.63858000       0.65489991       0.12853851       0.58476643      -0.13920000E-01  -0.58680000E-02    1.0000000      -0.35792442E-01
  2182.4900       0.62908300       0.65143746       0.12900024       0.58523264      -0.10771000E-01   0.10825000E-01    1.0000000      -0.49027290E-01
  2182.9900       0.62780900       0.64809829       0.12946197       0.58569884      -0.30950000E-02  -0.65640000E-02    1.0000000      -0.44498010E-01
  2183.4900       0.62598800       0.64488097       0.12992370       0.58616505      -0.17335000E-01  -0.20430000E-01    1.0000000      -0.41435620E-01
  2183.9900       0.61047400       0.64178405       0.13038543       0.58663125      -0.23525000E-01   0.23230000E-02    1.0000000      -0.68668483E-01
  2184.4900       0.60246300       0.63880612       0.13084716       0.58709745      -0.15012000E-01   0.15297000E-01    1.0000000      -0.79706883E-01
  2184.9900       0.59546200       0.63594573       0.13130890       0.58756366      -0.82280000E-02   0.59440000E-02    1.0000000      -0.88787978E-01
  2185.4900       0.59423500       0.63320146       0.13177063       0.58802986      -0.90680000E-02  -0.60000000E-04    1.0000000      -0.85460333E-01
  2185.9900       0.58639400       0.63057187       0.13223236       0.58849607      -0.82880000E-02   0.12760000E-01    1.0000000      -0.96889882E-01
  2186.4900       0.58594700       0.62805554       0.13269409       0.58896227       0.36920000E-02   0.22550000E-02    1.0000000      -0.92351465E-01
  2186.9900       0.59008600       0.62565102       0.13315582       0.58942847      -0.60330000E-02  -0.12521000E-01    1.0000000      -0.78000382E-01
  2187.4900       0.57991400       0.62335690       0.13361755       0.58989468      -0.88290000E-02   0.73770000E-02    1.0000000      -0.95277953E-01
  2187.9900       0.58125700       0.62117173       0.13407928       0.59036088       0.13440000E-02   0.48020000E-02    1.0000000      -0.87540056E-01
  2188.4900       0.58125800       0.61909409       0.13454101       0.59082709      -0.40270000E-02  -0.43700000E-02    1.0000000      -0.82981225E-01
  2188.9900       0.57723000       0.61712254       0.13500274       0.59129329      -0.30260000E-02   0.63440000E-02    1.0000000      -0.87491385E-01
  2189.4900       0.57823200       0.61525565       0.13546447       0.59175949       0.23170000E-02   0.43010000E-02    1.0000000      -0.81199408E-01
  2189.9900       0.57954700       0.61349199       0.13592620       0.59222570       0.12750000E-02  -0.44700000E-03    1.0000000      -0.74447369E-01
  2190.4900       0.57950700       0.61183013       0.13638793       0.59269190       0.18700000E-02  -0.20120000E-02    1.0000000      -0.70890345E-01
  2190.9900       0.58141700       0.61026864       0.13684966       0.59315811      -0.73700000E-03  -0.31200000E-02    1.0000000      -0.63276749E-01
  2191.4900       0.57877000       0.60880608       0.13731139       0.59362431      -0.12500000E-02   0.66000000E-04    1.0000000      -0.65874441E-01
  2191.9900       0.58016700       0.60744103       0.13777313       0.59409051      -0.67100000E-03  -0.87900000E-03    1.0000000      -0.59816767E-01
  2192.4900       0.57809900       0.60617205       0.13823486       0.59455672      -0.21290000E-02   0.21300000E-02    1.0000000      -0.61569152E-01
  2192.9900       0.57803800       0.60499770       0.13869659       0.59502292       0.14590000E-02   0.50470000E-02    1.0000000      -0.59127393E-01
  2193.4900       0.57955800       0.60391657       0.13915832       0.59548913       0.29180000E-02  -0.40730000E-02    1.0000000      -0.53422643E-01
  2193.9900       0.58095600       0.60292721       0.13962005       0.59595533      -0.26140000E-02  -0.20450000E-02    1.0000000      -0.48186741E-01
  2194.4900       0.57694400       0.60202819       0.14008178       0.59642153       0.87300000E-03   0.11822000E-01    1.0000000      -0.55014066E-01
  2194.9900       0.58182900       0.60121809       0.14054351       0.59688774       0.92080000E-02   0.70400000E-02    1.0000000      -0.42523698E-01
  2195.4900       0.58615200       0.60049547       0.14100524       0.59735394       0.79130000E-02  -0.73600000E-02    1.0000000      -0.31457757E-01
  2195.9900       0.58974200       0.59985889       0.14146697       0.59782015       0.18480000E-02  -0.57720000E-02    1.0000000      -0.22188135E-01
  2196.4900       0.58800000       0.59930694       0.14192870       0.59828635       0.21410000E-02  -0.20200000E-03    1.0000000      -0.24798111E-01
  2196.9900       0.59188300       0.59883817       0.14239043       0.59875255       0.16460000E-02   0.11550000E-02    1.0000000      -0.15253909E-01
  2197.4900       0.58964600       0.59845115       0.14285216       0.59921876       0.32960000E-02   0.15940000E-02    1.0000000      -0.19311249E-01
  2197.9900       0.59517900       0.59814445       0.14331389       0.59968496       0.32400000E-02  -0.81740000E-02    1.0000000      -0.65037662E-02
  2198.4900       0.59288600       0.59791665       0.14377562       0.60015117      -0.48780000E-02  -0.16980000E-02    1.0000000      -0.11033104E-01
  2198.9900       0.59030100       0.59776630       0.14423736       0.60061737       0.15420000E-02   0.50110000E-02    1.0000000      -0.16372730E-01
  2199.4900       0.59442800       0.59769198       0.14469909       0.60108357       0.13300000E-03  -0.25490000E-02    1.0000000      -0.71584936E-02
  2199.9900       0.59043400       0.59769226       0.14516082       0.60154978      -0.10070000E-02   0.24750000E-02    1.0000000      -0.15918645E-01
  2200.4900       0.59342100       0.59776570       0.14562255       0.60201598       0.26080000E-02   0.19223333E-02    1.0000000      -0.95286896E-02
  2201.4900       0.59434600       0.59812634       0.14654601       0.60294839       0.18765000E-02   0.27750000E-03    1.0000000      -0.82909465E-02
  2202.4900       0.59717400       0.59876245       0.14746947       0.60388080       0.31630000E-02   0.50250000E-04    1.0000000      -0.34837455E-02
  2203.4900       0.60067200       0.59966258       0.14839293       0.60481321       0.19770000E-02  -0.94575000E-03    1.0000000       0.22138472E-02
  2204.4900       0.60112800       0.60081527       0.14931639       0.60574561       0.12715000E-02   0.47500000E-05    1.0000000       0.68588021E-03
  2205.4900       0.60321500       0.60220907       0.15023985       0.60667802       0.19865000E-02  -0.11377500E-02    1.0000000       0.22061895E-02
  2206.4900       0.60510100       0.60383252       0.15116332       0.60761043      -0.10040000E-02  -0.54100000E-03    1.0000000       0.27819960E-02
  2207.4900       0.60120700       0.60567418       0.15208678       0.60854284       0.90450000E-03   0.19907500E-02    1.0000000      -0.97973126E-02
  2208.4900       0.60691000       0.60772258       0.15301024       0.60947525       0.29775000E-02   0.78650000E-03    1.0000000      -0.17821364E-02
  2209.4900       0.60716200       0.60996628       0.15393370       0.61040765       0.24775000E-02   0.14952500E-02    1.0000000      -0.61502784E-02
  2210.4900       0.61186500       0.61239381       0.15485716       0.61134006       0.59680000E-02   0.10842500E-02    1.0000000      -0.11597816E-02
  2211.4900       0.61909800       0.61499373       0.15578062       0.61227247       0.46460000E-02  -0.12212500E-02    1.0000000       0.90013823E-02
  2212.4900       0.62115700       0.61775458       0.15670408       0.61320488       0.35255000E-02   0.24750000E-04    1.0000000       0.74621004E-02
  2213.4900       0.62614900       0.62066491       0.15762755       0.61413729       0.46955000E-02   0.10667500E-02    1.0000000       0.12027577E-01
  2214.4900       0.63054800       0.62371326       0.15855101       0.61506969       0.56590000E-02   0.16525000E-02    1.0000000       0.14989793E-01
  2215.4900       0.63746700       0.62688818       0.15947447       0.61600210       0.80005000E-02   0.14867500E-02    1.0000000       0.23201227E-01
  2216.4900       0.64654900       0.63017821       0.16039793       0.61693451       0.86325000E-02  -0.68400000E-03    1.0000000       0.35904037E-01
  2217.4900       0.65473200       0.63357190       0.16132139       0.61786692       0.66325000E-02  -0.30122500E-02    1.0000000       0.46407836E-01
  2218.4900       0.65981400       0.63705780       0.16224485       0.61879933       0.26080000E-02  -0.23277500E-02    1.0000000       0.49908369E-01
  2219.4900       0.65994800       0.64062445       0.16316831       0.61973173       0.19770000E-02  -0.16750000E-03    1.0000000       0.42379960E-01
  2220.4900       0.66376800       0.64426040       0.16409178       0.62066414       0.22730000E-02   0.15000000E-04    1.0000000       0.42783618E-01
  2221.4900       0.66449400       0.64795419       0.16501524       0.62159655       0.20070000E-02   0.44300000E-03    1.0000000       0.36274726E-01
  2222.4900       0.66778200       0.65169437       0.16593870       0.62252896       0.31590000E-02   0.55300000E-03    1.0000000       0.35283011E-01
  2223.4900       0.67081200       0.65546949       0.16686216       0.62346137       0.31130000E-02  -0.10617500E-02    1.0000000       0.33648836E-01
  2224.4900       0.67400800       0.65926809       0.16778562       0.62439377       0.10355000E-02  -0.21117500E-02    1.0000000       0.32327230E-01
  2225.4900       0.67288300       0.66307872       0.16870908       0.62532618      -0.11105000E-02   0.37000000E-04    1.0000000       0.21502528E-01
  2226.4900       0.67178700       0.66688992       0.16963254       0.62625859       0.11095000E-02   0.21362500E-02    1.0000000       0.10740171E-01
  2227.4900       0.67510200       0.67069024       0.17055601       0.62719100       0.31620000E-02  -0.32875000E-03    1.0000000       0.96757792E-02
  2228.4900       0.67811100       0.67446822       0.17147947       0.62812341       0.45200000E-03  -0.63750000E-04    1.0000000       0.79892597E-02
  2229.4900       0.67600600       0.67821242       0.17240293       0.62905581       0.30345000E-02   0.23882500E-02    1.0000000      -0.48390610E-02
  2230.4900       0.68418000       0.68191137       0.17332639       0.62998822       0.52285000E-02   0.45200000E-03    1.0000000       0.49755079E-02
  2231.4900       0.68646300       0.68555363       0.17424985       0.63092063       0.39385000E-02  -0.74275000E-03    1.0000000       0.19944190E-02
  2232.4900       0.69205700       0.68912773       0.17517331       0.63185304       0.37430000E-02  -0.14675000E-03    1.0000000       0.64244057E-02
  2233.4900       0.69394900       0.69262223       0.17609677       0.63278545       0.36450000E-02   0.49750000E-04    1.0000000       0.29098402E-02
  2234.4900       0.69934700       0.69602567       0.17702024       0.63371785       0.38425000E-02   0.10910000E-02    1.0000000       0.72842613E-02
  2235.4900       0.70163400       0.69932660       0.17794370       0.63465026       0.58270000E-02   0.59500000E-03    1.0000000       0.50605393E-02
  2236.4900       0.71100100       0.70251356       0.17886716       0.63558267       0.50325000E-02  -0.28717500E-02    1.0000000       0.18614459E-01
  2237.4900       0.71169900       0.70557510       0.17979062       0.63651508       0.83500000E-04  -0.27817500E-02    1.0000000       0.13430802E-01
  2238.4900       0.71116800       0.71116800       0.18071408       0.63744748      -0.53100000E-03  -0.61450000E-03    1.0000000        0.0000000
