# XDI/1.0 Athena/0.9.26
# Element.edge:                  K
# Element.symbol:                P
# Column.1:                      energy eV
# Column.2:                      xmu
# Column.3:                      bkg
# Column.4:                      pre_edge
# Column.5:                      post_edge
# Column.6:                      der
# Column.7:                      sec
# Column.8:                      i0
# Column.9:                      chi(e)
# Athena.e0:                     2152
# Athena.eshift:                 0.49
# Athena.rbkg:                   1.0
# Athena.importance:             1
# Athena.standard:               None
# Athena.bkg_kweight:            2
# Athena.edge_step:              1.0608535
# Athena.fixed_step:             no
# Athena.pre_edge_range:         -20.400 -8.000
# Athena.pre_edge_line:          -2.765506 + 0.0013388 * E
# Athena.normalization_range:    30.000 58.600
# Athena.post_edge_polynomial:   -1.408034 + 0.00120097 * E + 0 * E^2 + 0 * E^3
# Athena.spline_range_energy:    0.000 85.601
# Athena.clamps:                 0 24
# Athena.spline_range_k:         0.000 4.740
# Athena.kweight:                2
# Athena.window:                 hanning
# Athena.phase_correction:       no
# Athena.k_range:                2.740 3.000
# Athena.dk:                     1
# Athena.r_range:                1 3
# Athena.dr:                     0.0
# Athena.window:                 hanning
# Athena.plot_multiplier:        1
# Athena.y_offset:               0
# ///
#------------------------
#   e         xmu        bkg        pre_edge        post_edge        der        sec        i0        chie
  2125.4900       0.96665700E-01   0.96665700E-01   0.80109917E-01    1.1446174      -0.44530000E-03   0.15417500E-03    1.0000000        0.0000000
  2127.4900       0.95775100E-01   0.95775100E-01   0.82787526E-01    1.1470193      -0.13695000E-03   0.91268750E-04    1.0000000        0.0000000
  2129.4900       0.96117900E-01   0.96117900E-01   0.85465135E-01    1.1494213      -0.80225000E-04  -0.79368750E-04    1.0000000        0.0000000
  2131.4900       0.95454200E-01   0.95454200E-01   0.88142745E-01    1.1518232      -0.45442500E-03   0.69812500E-05    1.0000000        0.0000000
  2133.4900       0.94300200E-01   0.94300200E-01   0.90820354E-01    1.1542251      -0.52300000E-04   0.41293750E-03    1.0000000        0.0000000
  2135.4900       0.95245000E-01   0.95245000E-01   0.93497963E-01    1.1566271       0.11973250E-02   0.14875000E-04    1.0000000        0.0000000
  2137.4900       0.99089500E-01   0.99089500E-01   0.96175572E-01    1.1590290       0.72000000E-05  -0.54396458E-03    1.0000000        0.0000000
  2139.4900       0.95273800E-01   0.95273800E-01   0.98853181E-01    1.1614310      -0.97853333E-03   0.20420606E-03    1.0000000        0.0000000
  2140.4900       0.96153900E-01   0.96153900E-01   0.10019199        1.1626319       0.61981818E-03  -0.69515152E-04    1.0000000        0.0000000
  2140.5900       0.95955600E-01   0.95955600E-01   0.10032587        1.1627520      -0.10550000E-02   0.14553409E-01    1.0000000        0.0000000
  2140.6900       0.95942900E-01   0.95942900E-01   0.10045975        1.1628721       0.35305000E-02   0.34557500E-01    1.0000000        0.0000000
  2140.7900       0.96661700E-01   0.96661700E-01   0.10059363        1.1629922       0.58565000E-02  -0.20550000E-01    1.0000000        0.0000000
  2140.8900       0.97114200E-01   0.97114200E-01   0.10072751        1.1631123      -0.57950000E-03  -0.17917500E-01    1.0000000        0.0000000
  2140.9900       0.96545800E-01   0.96545800E-01   0.10086139        1.1632324       0.22730000E-02   0.24790000E-01    1.0000000        0.0000000
  2141.0900       0.97568800E-01   0.97568800E-01   0.10099527        1.1633525       0.43785000E-02  -0.28915000E-01    1.0000000        0.0000000
  2141.1900       0.97421500E-01   0.97421500E-01   0.10112915        1.1634726      -0.35100000E-02  -0.12097500E-01    1.0000000        0.0000000
  2141.2900       0.96866800E-01   0.96866800E-01   0.10126303        1.1635927       0.19590000E-02   0.66132500E-01    1.0000000        0.0000000
  2141.3900       0.97813300E-01   0.97813300E-01   0.10139691        1.1637128       0.97165000E-02   0.48072500E-01    1.0000000        0.0000000
  2141.4900       0.98810100E-01   0.98810100E-01   0.10153079        1.1638329       0.11573500E-01  -0.47392500E-01    1.0000000        0.0000000
  2141.5900       0.10012800       0.10012800       0.10166467        1.1639530       0.23800000E-03  -0.80337500E-01    1.0000000        0.0000000
  2141.6900       0.98857700E-01   0.98857700E-01   0.10179855        1.1640731      -0.44940000E-02   0.31875000E-02    1.0000000        0.0000000
  2141.7900       0.99229200E-01   0.99229200E-01   0.10193243        1.1641932       0.87550000E-03   0.52065000E-01    1.0000000        0.0000000
  2141.8900       0.99032800E-01   0.99032800E-01   0.10206631        1.1643133       0.59190000E-02   0.31602500E-01    1.0000000        0.0000000
  2141.9900       0.10041300       0.10041300       0.10220019        1.1644334       0.71960000E-02  -0.18945000E-01    1.0000000        0.0000000
  2142.0900       0.10047200       0.10047200       0.10233407        1.1645535       0.21300000E-02   0.71450000E-02    1.0000000        0.0000000
  2142.1900       0.10083900       0.10083900       0.10246795        1.1646736       0.86250000E-02   0.20050000E-01    1.0000000        0.0000000
  2142.2900       0.10219700       0.10219700       0.10260183        1.1647937       0.61400000E-02  -0.40175000E-01    1.0000000        0.0000000
  2142.3900       0.10206700       0.10206700       0.10273571        1.1649138       0.59000000E-03  -0.17225000E-01    1.0000000        0.0000000
  2142.4900       0.10231500       0.10231500       0.10286960        1.1650339       0.26950000E-02   0.10325000E-01    1.0000000        0.0000000
  2142.5900       0.10260600       0.10260600       0.10300348        1.1651540       0.26550000E-02   0.19725000E-01    1.0000000        0.0000000
  2142.6900       0.10284600       0.10284600       0.10313736        1.1652741       0.66400000E-02   0.40875000E-01    1.0000000        0.0000000
  2142.7900       0.10393400       0.10393400       0.10327124        1.1653942       0.10830000E-01  -0.66750000E-02    1.0000000        0.0000000
  2142.8900       0.10501200       0.10501200       0.10340512        1.1655143       0.53050000E-02  -0.29675000E-01    1.0000000        0.0000000
  2142.9900       0.10499500       0.10499500       0.10353900        1.1656344       0.48950000E-02   0.96000000E-02    1.0000000        0.0000000
  2143.0900       0.10599100       0.10599100       0.10367288        1.1657545       0.72250000E-02  -0.10150000E-01    1.0000000        0.0000000
  2143.1900       0.10644000       0.10644000       0.10380676        1.1658745       0.28650000E-02  -0.18750000E-02    1.0000000        0.0000000
  2143.2900       0.10656400       0.10656400       0.10394064        1.1659946       0.68500000E-02   0.32125000E-01    1.0000000        0.0000000
  2143.3900       0.10781000       0.10781000       0.10407452        1.1661147       0.92900000E-02  -0.18850000E-01    1.0000000        0.0000000
  2143.4900       0.10842200       0.10842200       0.10420840        1.1662348       0.30800000E-02  -0.17500000E-02    1.0000000        0.0000000
  2143.5900       0.10842600       0.10842600       0.10434228        1.1663549       0.89400000E-02   0.48750000E-01    1.0000000        0.0000000
  2143.6900       0.11021000       0.11021000       0.10447616        1.1664750       0.12830000E-01  -0.23025000E-01    1.0000000        0.0000000
  2143.7900       0.11099200       0.11099200       0.10461004        1.1665951       0.43350000E-02  -0.47625000E-01    1.0000000        0.0000000
  2143.8900       0.11107700       0.11107700       0.10474392        1.1667152       0.33050000E-02  -0.92750000E-02    1.0000000        0.0000000
  2143.9900       0.11165300       0.11165300       0.10487780        1.1668353       0.24800000E-02   0.34575000E-01    1.0000000        0.0000000
  2144.0900       0.11157300       0.11157300       0.10501168        1.1669554       0.10220000E-01   0.74450000E-01    1.0000000        0.0000000
  2144.1900       0.11369700       0.11369700       0.10514556        1.1670755       0.17370000E-01  -0.10425000E-01    1.0000000        0.0000000
  2144.2900       0.11504700       0.11504700       0.10527944        1.1671956       0.81350000E-02  -0.75875000E-01    1.0000000        0.0000000
  2144.3900       0.11532400       0.11532400       0.10541332        1.1673157       0.21950000E-02   0.36750000E-02    1.0000000        0.0000000
  2144.4900       0.11548600       0.11548600       0.10554720        1.1674358       0.88700000E-02   0.69300000E-01    1.0000000        0.0000000
  2144.5900       0.11709800       0.11709800       0.10568108        1.1675559       0.16055000E-01   0.10200000E-01    1.0000000        0.0000000
  2144.6900       0.11869700       0.11869700       0.10581497        1.1676760       0.10910000E-01  -0.26925000E-01    1.0000000        0.0000000
  2144.7900       0.11928000       0.11928000       0.10594885        1.1677961       0.10670000E-01  -0.60000000E-03    1.0000000        0.0000000
  2144.8900       0.12083100       0.12083100       0.10608273        1.1679162       0.10790000E-01  -0.39750000E-02    1.0000000        0.0000000
  2144.9900       0.12143800       0.12143800       0.10621661        1.1680363       0.98750000E-02   0.12775000E-01    1.0000000        0.0000000
  2145.0900       0.12280600       0.12280600       0.10635049        1.1681564       0.13345000E-01   0.23625000E-01    1.0000000        0.0000000
  2145.1900       0.12410700       0.12410700       0.10648437        1.1682765       0.14600000E-01  -0.23275000E-01    1.0000000        0.0000000
  2145.2900       0.12572600       0.12572600       0.10661825        1.1683966       0.86900000E-02  -0.30200000E-01    1.0000000        0.0000000
  2145.3900       0.12584500       0.12584500       0.10675213        1.1685167       0.85600000E-02   0.41300000E-01    1.0000000        0.0000000
  2145.4900       0.12743800       0.12743800       0.10688601        1.1686368       0.16950000E-01   0.29700000E-01    1.0000000        0.0000000
  2145.5900       0.12923500       0.12923500       0.10701989        1.1687569       0.14500000E-01  -0.13975000E-01    1.0000000        0.0000000
  2145.6900       0.13033800       0.13033800       0.10715377        1.1688770       0.14155000E-01   0.28600000E-01    1.0000000        0.0000000
  2145.7900       0.13206600       0.13206600       0.10728765        1.1689971       0.20220000E-01   0.87750000E-02    1.0000000        0.0000000
  2145.8900       0.13438200       0.13438200       0.10742153        1.1691172       0.15910000E-01  -0.26200000E-01    1.0000000        0.0000000
  2145.9900       0.13524800       0.13524800       0.10755541        1.1692373       0.14980000E-01   0.21750000E-01    1.0000000        0.0000000
  2146.0900       0.13737800       0.13737800       0.10768929        1.1693574       0.20260000E-01   0.11050000E-01    1.0000000        0.0000000
  2146.1900       0.13930000       0.13930000       0.10782317        1.1694775       0.17190000E-01   0.42250000E-02    1.0000000        0.0000000
  2146.2900       0.14081600       0.14081600       0.10795705        1.1695976       0.21105000E-01   0.46300000E-01    1.0000000        0.0000000
  2146.3900       0.14352100       0.14352100       0.10809093        1.1697177       0.26450000E-01  -0.61750000E-02    1.0000000        0.0000000
  2146.4900       0.14610600       0.14610600       0.10822481        1.1698378       0.19870000E-01  -0.53250000E-02    1.0000000        0.0000000
  2146.5900       0.14749500       0.14749500       0.10835869        1.1699578       0.25385000E-01   0.26600000E-01    1.0000000        0.0000000
  2146.6900       0.15118300       0.15118300       0.10849257        1.1700779       0.25190000E-01   0.24500000E-02    1.0000000        0.0000000
  2146.7900       0.15253300       0.15253300       0.10862645        1.1701980       0.25875000E-01   0.26650000E-01    1.0000000        0.0000000
  2146.8900       0.15635800       0.15635800       0.10876034        1.1703181       0.30520000E-01  -0.28500000E-02    1.0000000        0.0000000
  2146.9900       0.15863700       0.15863700       0.10889422        1.1704382       0.25305000E-01  -0.42750000E-02    1.0000000        0.0000000
  2147.0900       0.16141900       0.16141900       0.10902810        1.1705583       0.29665000E-01   0.25375000E-01    1.0000000        0.0000000
  2147.1900       0.16457000       0.16457000       0.10916198        1.1706784       0.30380000E-01   0.12125000E-01    1.0000000        0.0000000
  2147.2900       0.16749500       0.16749500       0.10929586        1.1707985       0.32090000E-01   0.29250000E-02    1.0000000        0.0000000
  2147.3900       0.17098800       0.17098800       0.10942974        1.1709186       0.30965000E-01   0.54350000E-01    1.0000000        0.0000000
  2147.4900       0.17368800       0.17368800       0.10956362        1.1710387       0.42960000E-01   0.69825000E-01    1.0000000        0.0000000
  2147.5900       0.17958000       0.17958000       0.10969750        1.1711588       0.44930000E-01  -0.38325000E-01    1.0000000        0.0000000
  2147.6900       0.18267400       0.18267400       0.10983138        1.1712789       0.35295000E-01  -0.12500000E-01    1.0000000        0.0000000
  2147.7900       0.18663900       0.18663900       0.10996526        1.1713990       0.42430000E-01   0.65725000E-01    1.0000000        0.0000000
  2147.8900       0.19116000       0.19116000       0.11009914        1.1715191       0.48440000E-01   0.47475000E-01    1.0000000        0.0000000
  2147.9900       0.19632700       0.19632700       0.11023302        1.1716392       0.51925000E-01   0.25675000E-01    1.0000000        0.0000000
  2148.0900       0.20154500       0.20154500       0.11036690        1.1717593       0.53575000E-01   0.23975000E-01    1.0000000        0.0000000
  2148.1900       0.20704200       0.20704200       0.11050078        1.1718794       0.56720000E-01   0.13150000E-01    1.0000000        0.0000000
  2148.2900       0.21288900       0.21288900       0.11063466        1.1719995       0.56205000E-01  -0.12550000E-01    1.0000000        0.0000000
  2148.3900       0.21828300       0.21828300       0.11076854        1.1721196       0.54210000E-01   0.43825000E-01    1.0000000        0.0000000
  2148.4900       0.22373100       0.22373100       0.11090242        1.1722397       0.64970000E-01   0.16872500        1.0000000        0.0000000
  2148.5900       0.23127700       0.23127700       0.11103630        1.1723598       0.87955000E-01   0.10495000        1.0000000        0.0000000
  2148.6900       0.24132200       0.24132200       0.11117018        1.1724799       0.85960000E-01  -0.48600000E-01    1.0000000        0.0000000
  2148.7900       0.24846900       0.24846900       0.11130406        1.1726000       0.78235000E-01   0.44000000E-02    1.0000000        0.0000000
  2148.8900       0.25696900       0.25696900       0.11143794        1.1727201       0.86840000E-01   0.91175000E-01    1.0000000        0.0000000
  2148.9900       0.26583700       0.26583700       0.11157183        1.1728402       0.96470000E-01   0.11605000        1.0000000        0.0000000
  2149.0900       0.27626300       0.27626300       0.11170571        1.1729603       0.11005000       0.16532500        1.0000000        0.0000000
  2149.1900       0.28784700       0.28784700       0.11183959        1.1730804       0.12953500       0.12292500        1.0000000        0.0000000
  2149.2900       0.30217000       0.30217000       0.11197347        1.1732005       0.13463500       0.10810000        1.0000000        0.0000000
  2149.3900       0.31477400       0.31477400       0.11210735        1.1733206       0.15115500       0.15500000        1.0000000        0.0000000
  2149.4900       0.33240100       0.33240100       0.11224123        1.1734407       0.16563500       0.91500000E-01    1.0000000        0.0000000
  2149.5900       0.34790100       0.34790100       0.11237511        1.1735608       0.16945500       0.16170000        1.0000000        0.0000000
  2149.6900       0.36629200       0.36629200       0.11250899        1.1736809       0.19797500       0.33767500        1.0000000        0.0000000
  2149.7900       0.38749600       0.38749600       0.11264287        1.1738010       0.23699000       0.33705000        1.0000000        0.0000000
  2149.8900       0.41369000       0.41369000       0.11277675        1.1739211       0.26538500       0.34512500        1.0000000        0.0000000
  2149.9900       0.44057300       0.44057300       0.11291063        1.1740411       0.30601500       0.43832500        1.0000000        0.0000000
  2150.0900       0.47489300       0.47489300       0.11304451        1.1741612       0.35305000       0.59827500        1.0000000        0.0000000
  2150.1900       0.51118300       0.51118300       0.11317839        1.1742813       0.42567000       0.78097500        1.0000000        0.0000000
  2150.2900       0.56002700       0.56002700       0.11331227        1.1744014       0.50924500       0.92845000        1.0000000        0.0000000
  2150.3900       0.61303200       0.61303200       0.11344615        1.1745215       0.61136000        1.2556000        1.0000000        0.0000000
  2150.4900       0.68229900       0.68229900       0.11358003        1.1746416       0.76036500        1.5519500        1.0000000        0.0000000
  2150.5900       0.76510500       0.76510500       0.11371391        1.1747617       0.92175000        1.6036500        1.0000000        0.0000000
  2150.6900       0.86664900       0.86664900       0.11384779        1.1748818        1.0810950        1.4500250        1.0000000        0.0000000
  2150.7900       0.98132400       0.98132400       0.11398167        1.1750019        1.2117550        1.2081750        1.0000000        0.0000000
  2150.8900        1.1090000        1.1090000       0.11411555        1.1751220        1.3227300       0.50322500        1.0000000        0.0000000
  2150.9900        1.2458700        1.2458700       0.11424943        1.1752421        1.3124000      -0.97650000E-01    1.0000000        0.0000000
  2151.0900        1.3714800        1.3714800       0.11438331        1.1753622        1.3032000       0.44250000E-01    1.0000000        0.0000000
  2151.1900        1.5065100        1.5065100       0.11451720        1.1754823        1.3212500       0.36275000        1.0000000        0.0000000
  2151.2900        1.6357300        1.6357300       0.11465108        1.1756024        1.3757500        1.1947500        1.0000000        0.0000000
  2151.3900        1.7816600        1.7816600       0.11478496        1.1757225        1.5602000        2.4622500        1.0000000        0.0000000
  2151.4900        1.9477700        1.9477700       0.11491884        1.1758426        1.8682000        3.4022500        1.0000000        0.0000000
  2151.5900        2.1553000        2.1553000       0.11505272        1.1759627        2.2406500        3.5660000        1.0000000        0.0000000
  2151.6900        2.3959000        2.3959000       0.11518660        1.1760828        2.5814000        2.7540000        1.0000000        0.0000000
  2151.7900        2.6715800        2.6715800       0.11532048        1.1762029        2.7914500       0.74150000        1.0000000        0.0000000
  2151.8900        2.9541900        2.9541900       0.11545436        1.1763230        2.7297000       -1.9682500        1.0000000        0.0000000
  2151.9900        3.2175200        3.2175200       0.11558824        1.1764431        2.3978000       -3.8925000        1.0000000        0.0000000
  2152.0900        3.4337500        1.8718439       0.11572212        1.1765632        1.9512000       -4.9567500        1.0000000        1.4723108
  2152.1900        3.6077600        1.8720598       0.11585600        1.1766833        1.4064500       -5.3520000        1.0000000        1.6361356
  2152.2900        3.7150400        1.8722411       0.11598988        1.1768034       0.88080000       -4.0052500        1.0000000        1.7370909
  2152.3900        3.7839200        1.8723879       0.11612376        1.1769235       0.60540000       -3.5855000        1.0000000        1.8018813
  2152.4900        3.8361200        1.8725004       0.11625764        1.1770436       0.16370000       -3.8270000        1.0000000        1.8509809
  2152.5900        3.8166600        1.8725790       0.11639152        1.1771637      -0.16000000       -1.6745000        1.0000000        1.8325631
  2152.6900        3.8041200        1.8726237       0.11652540        1.1772838      -0.17120000      -0.74175000        1.0000000        1.8207003
  2152.7900        3.7824200        1.8726349       0.11665928        1.1774039      -0.30835000       -2.9205000        1.0000000        1.8002345
  2152.8900        3.7424500        1.8726127       0.11679316        1.1775240      -0.75530000       -3.7300000        1.0000000        1.7625782
  2152.9900        3.6313600        1.8725574       0.11692704        1.1776441       -1.0543500       -1.6162500        1.0000000        1.6579128
  2153.0900        3.5315800        1.8724692       0.11706092        1.1777642       -1.0785500      -0.90425000        1.0000000        1.5639396
  2153.1900        3.4156500        1.8723482       0.11719480        1.1778843       -1.2352000      -0.85975000        1.0000000        1.4547737
  2153.2900        3.2845400        1.8721948       0.11732868        1.1780044       -1.2505000      -0.26050000        1.0000000        1.3313291
  2153.3900        3.1655500        1.8720092       0.11746257        1.1781244       -1.2873000      -0.41925000        1.0000000        1.2193397
  2153.4900        3.0270800        1.8717915       0.11759645        1.1782445       -1.3343500       0.57250000E-01    1.0000000        1.0890179
  2153.5900        2.8986800        1.8715420       0.11773033        1.1783646       -1.2758500        1.0092500        1.0000000       0.96821849
  2153.6900        2.7719100        1.8712610       0.11786421        1.1784847       -1.1325000        1.0777500        1.0000000       0.84898531
  2153.7900        2.6721800        1.8709485       0.11799809        1.1786048       -1.0603000       0.11225000        1.0000000       0.75527062
  2153.8900        2.5598500        1.8706049       0.11813197        1.1787249       -1.1100500       0.21825000        1.0000000       0.64970805
  2153.9900        2.4501700        1.8702304       0.11826585        1.1788450       -1.0166500       0.90000000        1.0000000       0.54667262
  2154.0900        2.3565200        1.8698252       0.11839973        1.1789651      -0.93005000       0.82025000        1.0000000       0.45877661
  2154.1900        2.2641600        1.8693895       0.11853361        1.1790852      -0.85260000       0.80975000        1.0000000       0.37212534
  2154.2900        2.1860000        1.8689236       0.11866749        1.1792053      -0.76810000       0.77375000        1.0000000       0.29888804
  2154.3900        2.1105400        1.8684276       0.11880137        1.1793254      -0.69785000       0.38150000        1.0000000       0.22822418
  2154.4900        2.0464300        1.8679018       0.11893525        1.1794455      -0.69180000       0.56325000        1.0000000       0.16828735
  2154.5900        1.9721800        1.8673464       0.11906913        1.1795656      -0.58520000        1.0817500        1.0000000       0.98820094E-01
  2154.6900        1.9293900        1.8667616       0.11920301        1.1796857      -0.47545000       0.26300000        1.0000000       0.59035893E-01
  2154.7900        1.8770900        1.8661476       0.11933689        1.1798058      -0.53260000       0.58750000E-01    1.0000000       0.10314696E-01
  2154.8900        1.8228700        1.8655047       0.11947077        1.1799259      -0.46370000       0.84125000        1.0000000      -0.40189088E-01
  2154.9900        1.7843500        1.8648331       0.11960465        1.1800460      -0.36435000       0.61425000        1.0000000      -0.75866400E-01
  2155.0900        1.7500000        1.8641330       0.11973853        1.1801661      -0.34085000       0.21925000        1.0000000      -0.10758605
  2155.1900        1.7161800        1.8634047       0.11987241        1.1802862      -0.32050000       0.37000000        1.0000000      -0.13877946
  2155.2900        1.6859000        1.8626483       0.12000629        1.1804063      -0.26685000       0.78975000        1.0000000      -0.16660949
  2155.3900        1.6628100        1.8618640       0.12014017        1.1805264      -0.16255000       0.48425000        1.0000000      -0.18763572
  2155.4900        1.6533900        1.8610521       0.12027405        1.1806465      -0.17000000       0.46250000E-01    1.0000000      -0.19575007
  2155.5900        1.6288100        1.8602129       0.12040794        1.1807666      -0.15330000       0.34350000        1.0000000      -0.21812898
  2155.6900        1.6227300        1.8593465       0.12054182        1.1808867      -0.10130000       0.27475000        1.0000000      -0.22304350
  2155.7900        1.6085500        1.8584531       0.12067570        1.1810068      -0.98350000E-01   0.30250000        1.0000000      -0.23556797
  2155.8900        1.6030600        1.8575330       0.12080958        1.1811269      -0.40800000E-01   0.96250000E-01    1.0000000      -0.23987574
  2155.9900        1.6003900        1.8565864       0.12094346        1.1812470      -0.79100000E-01  -0.27000000        1.0000000      -0.24150028
  2156.0900        1.5872400        1.8556135       0.12107734        1.1813671      -0.94800000E-01   0.31250000E-01    1.0000000      -0.25297888
  2156.1900        1.5814300        1.8546146       0.12121122        1.1814872      -0.72850000E-01  -0.20500000E-01    1.0000000      -0.25751396
  2156.2900        1.5726700        1.8535898       0.12134510        1.1816073      -0.98900000E-01  -0.31350000        1.0000000      -0.26480546
  2156.3900        1.5616500        1.8525394       0.12147898        1.1817274      -0.13555000       0.10075000        1.0000000      -0.27420316
  2156.4900        1.5455600        1.8514636       0.12161286        1.1818475      -0.78750000E-01   0.24375000        1.0000000      -0.28835609
  2156.5900        1.5459000        1.8503626       0.12174674        1.1819676      -0.86800000E-01  -0.35925000        1.0000000      -0.28699775
  2156.6900        1.5282000        1.8492366       0.12188062        1.1820877      -0.15060000       0.93250000E-01    1.0000000      -0.30262107
  2156.7900        1.5157800        1.8480859       0.12201450        1.1822077      -0.68150000E-01   0.35850000        1.0000000      -0.31324394
  2156.8900        1.5145700        1.8469107       0.12214838        1.1823278      -0.78900000E-01  -0.39900000        1.0000000      -0.31327673
  2156.9900        1.5000000        1.8457112       0.12228226        1.1824479      -0.14795000      -0.37150000        1.0000000      -0.32588025
  2157.0900        1.4849800        1.8444876       0.12241614        1.1825680      -0.15320000      -0.11025000        1.0000000      -0.33888527
  2157.1900        1.4693600        1.8432402       0.12255002        1.1826881      -0.17000000       0.13600000        1.0000000      -0.35243338
  2157.2900        1.4509800        1.8419691       0.12268390        1.1828082      -0.12600000       0.53125000        1.0000000      -0.36856090
  2157.3900        1.4441600        1.8406746       0.12281778        1.1829283      -0.63750000E-01   0.20875000        1.0000000      -0.37376946
  2157.4900        1.4382300        1.8393570       0.12295166        1.1830484      -0.84250000E-01  -0.15250000E-01    1.0000000      -0.37811721
  2157.5900        1.4273100        1.8380163       0.12308554        1.1831685      -0.66800000E-01   0.17200000        1.0000000      -0.38714706
  2157.6900        1.4248700        1.8366529       0.12321942        1.1832886      -0.49850000E-01  -0.71000000E-01    1.0000000      -0.38816191
  2157.7900        1.4173400        1.8352670       0.12335331        1.1834087      -0.81000000E-01  -0.87250000E-01    1.0000000      -0.39395354
  2157.8900        1.4086700        1.8338588       0.12348719        1.1835288      -0.67300000E-01   0.18475000        1.0000000      -0.40079875
  2157.9900        1.4038800        1.8324284       0.12362107        1.1836489      -0.44050000E-01   0.10675000        1.0000000      -0.40396571
  2158.0900        1.3998600        1.8309763       0.12375495        1.1837690      -0.45950000E-01   0.21800000        1.0000000      -0.40638623
  2158.1900        1.3946900        1.8295024       0.12388883        1.1838891      -0.45000000E-03   0.46100000        1.0000000      -0.40987037
  2158.2900        1.3997700        1.8280072       0.12402271        1.1840092       0.46250000E-01   0.28900000        1.0000000      -0.40367229
  2158.3900        1.4039400        1.8264907       0.12415659        1.1841293       0.57350000E-01  -0.73750000E-01    1.0000000      -0.39831202
  2158.4900        1.4112400        1.8249533       0.12429047        1.1842494       0.31500000E-01  -0.14325000        1.0000000      -0.38998152
  2158.5900        1.4102400        1.8233951       0.12442435        1.1843695       0.28700000E-01   0.15300000        1.0000000      -0.38945533
  2158.6900        1.4169800        1.8218163       0.12455823        1.1844896       0.62100000E-01   0.16550000        1.0000000      -0.38161377
  2158.7900        1.4226600        1.8202172       0.12469211        1.1846097       0.61800000E-01   0.57250000E-01    1.0000000      -0.37475225
  2158.8900        1.4293400        1.8185981       0.12482599        1.1847298       0.73550000E-01   0.23225000        1.0000000      -0.36692915
  2158.9900        1.4373700        1.8169590       0.12495987        1.1848499       0.10825000       0.20700000        1.0000000      -0.35781475
  2159.0900        1.4509900        1.8153003       0.12509375        1.1849700       0.11495000       0.14200000        1.0000000      -0.34341248
  2159.1900        1.4603600        1.8136222       0.12522763        1.1850901       0.13665000       0.71000000E-01    1.0000000      -0.33299810
  2159.2900        1.4783200        1.8119248       0.12536151        1.1852102       0.12915000      -0.17725000        1.0000000      -0.31446835
  2159.3900        1.4861900        1.8102085       0.12549539        1.1853303       0.10120000       0.11150000        1.0000000      -0.30543190
  2159.4900        1.4985600        1.8084734       0.12562927        1.1854504       0.15145000       0.46075000        1.0000000      -0.29213589
  2159.5900        1.5164800        1.8067197       0.12576315        1.1855705       0.19335000      -0.17175000        1.0000000      -0.27359075
  2159.6900        1.5372300        1.8049477       0.12589703        1.1856906       0.11710000      -0.41975000        1.0000000      -0.25236068
  2159.7900        1.5399000        1.8031576       0.12603091        1.1858107       0.10940000       0.19125000        1.0000000      -0.24815641
  2159.8900        1.5591100        1.8013496       0.12616480        1.1859308       0.15535000       0.36700000        1.0000000      -0.22834406
  2159.9900        1.5709700        1.7995239       0.12629868        1.1860509       0.18280000       0.13350000        1.0000000      -0.21544343
  2160.0900        1.5956700        1.7976808       0.12643256        1.1861710       0.18205000      -0.27875000        1.0000000      -0.19042290
  2160.1900        1.6073800        1.7958205       0.12656644        1.1862910       0.12705000      -0.11900000        1.0000000      -0.17763099
  2160.2900        1.6210800        1.7939431       0.12670032        1.1864111       0.15825000       0.31825000        1.0000000      -0.16294719
  2160.3900        1.6390300        1.7920490       0.12683420        1.1865312       0.19070000      -0.15000000E-01    1.0000000      -0.14424137
  2160.4900        1.6592200        1.7901383       0.12696808        1.1866513       0.15525000      -0.15300000        1.0000000      -0.12340843
  2160.9900        1.7321800        1.7803440       0.12763748        1.1872518       0.98900000E-01  -0.16772000        1.0000000      -0.45401206E-01
  2161.4900        1.7581200        1.7701688       0.12830688        1.1878523      -0.12470000E-01  -0.19397000        1.0000000      -0.11357677E-01
  2161.9900        1.7197100        1.7596403       0.12897628        1.1884528      -0.95070000E-01  -0.93750000E-01    1.0000000      -0.37639775E-01
  2162.4900        1.6630500        1.7487860       0.12964569        1.1890533      -0.10622000       0.33200000E-02    1.0000000      -0.80817958E-01
  2162.9900        1.6134900        1.7376336       0.13031509        1.1896538      -0.91750000E-01   0.35910000E-01    1.0000000      -0.11702240
  2163.4900        1.5713000        1.7262107       0.13098449        1.1902543      -0.70310000E-01   0.55260000E-01    1.0000000      -0.14602463
  2163.9900        1.5431800        1.7145450       0.13165389        1.1908547      -0.36490000E-01   0.64440000E-01    1.0000000      -0.16153500
  2164.4900        1.5348100        1.7026639       0.13232330        1.1914552      -0.58700000E-02   0.70340000E-01    1.0000000      -0.15822536
  2164.9900        1.5373100        1.6905952       0.13299270        1.1920557       0.33850000E-01   0.92580000E-01    1.0000000      -0.14449238
  2165.4900        1.5686600        1.6783665       0.13366210        1.1926562       0.86710000E-01   0.11099000        1.0000000      -0.10341345
  2165.9900        1.6240200        1.6660054       0.13433150        1.1932567       0.14484000       0.83790000E-01    1.0000000      -0.39576988E-01
  2166.4900        1.7135000        1.6535394       0.13500091        1.1938572       0.17050000      -0.30800000E-02    1.0000000       0.56521051E-01
  2166.9900        1.7945200        1.6409963       0.13567031        1.1944576       0.14176000      -0.92510000E-01    1.0000000       0.14471714
  2167.4900        1.8552600        1.6284036       0.13633971        1.1950581       0.77990000E-01  -0.14252000        1.0000000       0.21384327
  2167.9900        1.8725100        1.6157890       0.13700911        1.1956586      -0.76000000E-03  -0.12602000        1.0000000       0.24199480
  2168.4900        1.8545000        1.6031800       0.13767851        1.1962591      -0.48030000E-01  -0.54680000E-01    1.0000000       0.23690361
  2168.9900        1.8244800        1.5906043       0.13834792        1.1968596      -0.55440000E-01   0.18300000E-01    1.0000000       0.22045997
  2169.4900        1.7990600        1.5780894       0.13901732        1.1974601      -0.29730000E-01   0.49460000E-01    1.0000000       0.20829507
  2169.9900        1.7947500        1.5656631       0.13968672        1.1980606      -0.59800000E-02   0.20440000E-01    1.0000000       0.21594581
  2170.4900        1.7930800        1.5533530       0.14035612        1.1986610      -0.92900000E-02  -0.27860000E-01    1.0000000       0.22597564
  2170.9900        1.7854600        1.5411865       0.14102553        1.1992615      -0.33840000E-01  -0.43900000E-01    1.0000000       0.23026128
  2171.4900        1.7592400        1.5291914       0.14169493        1.1998620      -0.53190000E-01  -0.37760000E-01    1.0000000       0.21685235
  2171.9900        1.7322700        1.5173953       0.14236433        1.2004625      -0.71600000E-01  -0.26090000E-01    1.0000000       0.20254887
  2172.4900        1.6876400        1.5058258       0.14303373        1.2010630      -0.79280000E-01  -0.13800000E-02    1.0000000       0.17138483
  2172.9900        1.6529900        1.4945105       0.14370314        1.2016635      -0.72980000E-01   0.13140000E-01    1.0000000       0.14938869
  2173.4900        1.6146600        1.4834754       0.14437254        1.2022640      -0.66140000E-01   0.25600000E-02    1.0000000       0.12365952
  2173.9900        1.5868500        1.4727284       0.14504194        1.2028644      -0.70420000E-01  -0.11000000E-01    1.0000000       0.10757523
  2174.4900        1.5442400        1.4622665       0.14571134        1.2034649      -0.77140000E-01   0.85100000E-02    1.0000000       0.77271293E-01
  2174.9900        1.5097100        1.4520861       0.14638074        1.2040654      -0.61910000E-01   0.25050000E-01    1.0000000       0.54318436E-01
  2175.4900        1.4823300        1.4421839       0.14705015        1.2046659      -0.52090000E-01   0.21640000E-01    1.0000000       0.37843199E-01
  2175.9900        1.4576200        1.4325565       0.14771955        1.2052664      -0.40270000E-01   0.26160000E-01    1.0000000       0.23625761E-01
  2176.4900        1.4420600        1.4232006       0.14838895        1.2058669      -0.25930000E-01   0.20380000E-01    1.0000000       0.17777604E-01
  2176.9900        1.4316900        1.4141126       0.14905835        1.2064674      -0.19890000E-01   0.57600000E-02    1.0000000       0.16569078E-01
  2177.4900        1.4221700        1.4052893       0.14972776        1.2070678      -0.20170000E-01  -0.30000000E-04    1.0000000       0.15912330E-01
  2177.9900        1.4115200        1.3967273       0.15039716        1.2076683      -0.19920000E-01  -0.59300000E-02    1.0000000       0.13944132E-01
  2178.4900        1.4022500        1.3884232       0.15106656        1.2082688      -0.26100000E-01  -0.15940000E-01    1.0000000       0.13033695E-01
  2178.9900        1.3854200        1.3803735       0.15173596        1.2088693      -0.35860000E-01  -0.12580000E-01    1.0000000       0.47570378E-02
  2179.4900        1.3663900        1.3725749       0.15240537        1.2094698      -0.38680000E-01  -0.26100000E-02    1.0000000      -0.58301128E-02
  2179.9900        1.3467400        1.3650240       0.15307477        1.2100703      -0.38470000E-01   0.10190000E-01    1.0000000      -0.17235197E-01
  2180.4900        1.3279200        1.3577175       0.15374417        1.2106708      -0.28490000E-01   0.64900000E-02    1.0000000      -0.28088196E-01
  2180.9900        1.3182500        1.3506518       0.15441357        1.2112712      -0.31980000E-01  -0.80700000E-02    1.0000000      -0.30543178E-01
  2181.4900        1.2959400        1.3438238       0.15508297        1.2118717      -0.36560000E-01  -0.50700000E-02    1.0000000      -0.45137012E-01
  2181.9900        1.2816900        1.3372298       0.15575238        1.2124722      -0.37050000E-01   0.13450000E-01    1.0000000      -0.52353916E-01
  2182.4900        1.2588900        1.3308667       0.15642178        1.2130727      -0.23110000E-01   0.22380000E-01    1.0000000      -0.67847902E-01
  2182.9900        1.2585800        1.3247309       0.15709118        1.2136732      -0.14670000E-01  -0.40200000E-02    1.0000000      -0.62356315E-01
  2183.4900        1.2442200        1.3188191       0.15776058        1.2142737      -0.27130000E-01  -0.88600000E-02    1.0000000      -0.70319929E-01
  2183.9900        1.2314500        1.3131280       0.15842999        1.2148741      -0.23530000E-01   0.14520000E-01    1.0000000      -0.76992702E-01
  2184.4900        1.2206900        1.3076540       0.15909939        1.2154746      -0.12610000E-01   0.12710000E-01    1.0000000      -0.81975536E-01
  2184.9900        1.2188400        1.3023939       0.15976879        1.2160751      -0.10820000E-01  -0.20100000E-02    1.0000000      -0.78761039E-01
  2185.4900        1.2098700        1.2973443       0.16043819        1.2166756      -0.14620000E-01  -0.10320000E-01    1.0000000      -0.82456493E-01
  2185.9900        1.2042200        1.2925017       0.16110759        1.2172761      -0.21140000E-01  -0.43600000E-02    1.0000000      -0.83217574E-01
  2186.4900        1.1887300        1.2878627       0.16177700        1.2178766      -0.18980000E-01   0.11080000E-01    1.0000000      -0.93446192E-01
  2186.9900        1.1852400        1.2834241       0.16244640        1.2184771      -0.10060000E-01   0.10240000E-01    1.0000000      -0.92551960E-01
  2187.4900        1.1786700        1.2791823       0.16311580        1.2190775      -0.87400000E-02  -0.16800000E-02    1.0000000      -0.94746651E-01
  2187.9900        1.1765000        1.2751341       0.16378520        1.2196780      -0.11740000E-01   0.60000000E-03    1.0000000      -0.92976149E-01
  2188.4900        1.1669300        1.2712760       0.16445461        1.2202785      -0.81400000E-02   0.14830000E-01    1.0000000      -0.98360377E-01
  2188.9900        1.1683600        1.2676046       0.16512401        1.2208790       0.30900000E-02   0.12980000E-01    1.0000000      -0.93551619E-01
  2189.4900        1.1700200        1.2641165       0.16579341        1.2214795       0.48400000E-02   0.37000000E-02    1.0000000      -0.88698885E-01
  2189.9900        1.1732000        1.2608084       0.16646281        1.2220800       0.67900000E-02   0.44800000E-02    1.0000000      -0.82582978E-01
  2190.4900        1.1768100        1.2576769       0.16713222        1.2226805       0.93200000E-02   0.60200000E-02    1.0000000      -0.76228181E-01
  2190.9900        1.1825200        1.2547186       0.16780162        1.2232809       0.12810000E-01   0.56900000E-02    1.0000000      -0.68057097E-01
  2191.4900        1.1896200        1.2519301       0.16847102        1.2238814       0.15010000E-01   0.34400000E-02    1.0000000      -0.58735805E-01
  2191.9900        1.1975300        1.2493080       0.16914042        1.2244819       0.16250000E-01   0.84000000E-03    1.0000000      -0.48807841E-01
  2192.4900        1.2058700        1.2468489       0.16980982        1.2250824       0.15850000E-01  -0.11700000E-02    1.0000000      -0.38628214E-01
  2192.9900        1.2133800        1.2445494       0.17047923        1.2256829       0.15080000E-01  -0.15300000E-02    1.0000000      -0.29381455E-01
  2193.4900        1.2209500        1.2424062       0.17114863        1.2262834       0.14320000E-01  -0.24600000E-02    1.0000000      -0.20225423E-01
  2193.9900        1.2277000        1.2404159       0.17181803        1.2268839       0.12620000E-01  -0.40000000E-04    1.0000000      -0.11986446E-01
  2194.4900        1.2335700        1.2385750       0.17248743        1.2274843       0.14280000E-01   0.13000000E-02    1.0000000      -0.47178883E-02
  2194.9900        1.2419800        1.2368802       0.17315684        1.2280848       0.13920000E-01   0.16700000E-02    1.0000000       0.48072614E-02
  2195.4900        1.2474900        1.2353281       0.17382624        1.2286853       0.15950000E-01   0.76400000E-02    1.0000000       0.11464250E-01
  2195.9900        1.2579300        1.2339153       0.17449564        1.2292858       0.21560000E-01  -0.72000000E-03    1.0000000       0.22637120E-01
  2196.4900        1.2690500        1.2326385       0.17516504        1.2298863       0.15230000E-01  -0.17080000E-01    1.0000000       0.34322857E-01
  2196.9900        1.2731600        1.2314942       0.17583445        1.2304868       0.44800000E-02  -0.67000000E-02    1.0000000       0.39275772E-01
  2197.4900        1.2735300        1.2304790       0.17650385        1.2310873       0.85300000E-02   0.36800000E-02    1.0000000       0.40581484E-01
  2197.9900        1.2816900        1.2295896       0.17717325        1.2316877       0.81600000E-02  -0.49100000E-02    1.0000000       0.49111792E-01
  2198.4900        1.2816900        1.2288226       0.17784265        1.2322882       0.36200000E-02  -0.35200000E-02    1.0000000       0.49834825E-01
  2198.9900        1.2853100        1.2281745       0.17851205        1.2328887       0.46400000E-02  -0.42000000E-02    1.0000000       0.53858043E-01
  2199.4900        1.2863300        1.2276421       0.17918146        1.2334892      -0.58000000E-03  -0.99900000E-02    1.0000000       0.55321436E-01
  2199.9900        1.2847300        1.2272218       0.17985086        1.2340897      -0.53500000E-02  -0.12146667E-01    1.0000000       0.54209344E-01
  2200.4900        1.2809800        1.2269104       0.18052026        1.2346902      -0.12726667E-01  -0.66233333E-02    1.0000000       0.50968000E-01
  2201.4900        1.2656400        1.2266005       0.18185907        1.2358911      -0.15285000E-01  -0.29391667E-02    1.0000000       0.36800059E-01
  2202.4900        1.2504100        1.2266853       0.18319787        1.2370921      -0.18605000E-01  -0.94000000E-03    1.0000000       0.22363796E-01
  2203.4900        1.2284300        1.2271376       0.18453668        1.2382931      -0.17165000E-01   0.52975000E-02    1.0000000       0.12182631E-02
  2204.4900        1.2160800        1.2279304       0.18587548        1.2394940      -0.80100000E-02   0.64850000E-02    1.0000000      -0.11170598E-01
  2205.4900        1.2124100        1.2290365       0.18721428        1.2406950      -0.41950000E-02   0.46150000E-02    1.0000000      -0.15672747E-01
  2206.4900        1.2076900        1.2304289       0.18855309        1.2418960       0.12200000E-02   0.56275000E-02    1.0000000      -0.21434501E-01
  2207.4900        1.2148500        1.2320804       0.18989189        1.2430970       0.70600000E-02   0.31500000E-03    1.0000000      -0.16242014E-01
  2208.4900        1.2218100        1.2339640       0.19123070        1.2442979       0.18500000E-02  -0.26700000E-02    1.0000000      -0.11456802E-01
  2209.4900        1.2185500        1.2360525       0.19256950        1.2454989       0.17200000E-02   0.32775000E-02    1.0000000      -0.16498544E-01
  2210.4900        1.2252500        1.2383189       0.19390831        1.2466999       0.84050000E-02   0.75000000E-03    1.0000000      -0.12319275E-01
  2211.4900        1.2353600        1.2407361       0.19524711        1.2479008       0.32200000E-02  -0.34775000E-02    1.0000000      -0.50677271E-02
  2212.4900        1.2316900        1.2432769       0.19658592        1.2491018       0.14500000E-02   0.20225000E-02    1.0000000      -0.10922288E-01
  2213.4900        1.2382600        1.2459143       0.19792472        1.2503028       0.72650000E-02   0.84000000E-03    1.0000000      -0.72152670E-02
  2214.4900        1.2462200        1.2486212       0.19926353        1.2515037       0.31300000E-02  -0.12900000E-02    1.0000000      -0.22634595E-02
  2215.4900        1.2445200        1.2513704       0.20060233        1.2527047       0.46850000E-02   0.29350000E-02    1.0000000      -0.64574623E-02
  2216.4900        1.2555900        1.2541349       0.20194113        1.2539057       0.90000000E-02   0.15475000E-02    1.0000000       0.13716222E-02
  2217.4900        1.2625200        1.2568876       0.20327994        1.2551067       0.77800000E-02   0.47750000E-03    1.0000000       0.53093429E-02
  2218.4900        1.2711500        1.2596013       0.20461874        1.2563076       0.99550000E-02  -0.24200000E-02    1.0000000       0.10886246E-01
  2219.4900        1.2824300        1.2622490       0.20595755        1.2575086       0.29400000E-02  -0.51275000E-02    1.0000000       0.19023381E-01
  2220.4900        1.2770300        1.2648035       0.20729635        1.2587096      -0.30000000E-03   0.92000000E-03    1.0000000       0.11525115E-01
  2221.4900        1.2818300        1.2672379       0.20863516        1.2599105       0.47800000E-02   0.21025000E-02    1.0000000       0.13755081E-01
  2222.4900        1.2865900        1.2695249       0.20997396        1.2611115       0.39050000E-02   0.17000000E-03    1.0000000       0.16086218E-01
  2223.4900        1.2896400        1.2716375       0.21131277        1.2623125       0.51200000E-02   0.49000000E-03    1.0000000       0.16969867E-01
  2224.4900        1.2968300        1.2735485       0.21265157        1.2635135       0.48850000E-02  -0.81000000E-03    1.0000000       0.21946000E-01
  2225.4900        1.2994100        1.2752309       0.21399038        1.2647144       0.35000000E-02  -0.18550000E-02    1.0000000       0.22792086E-01
  2226.4900        1.3038300        1.2766576       0.21532918        1.2659154       0.11750000E-02  -0.18775000E-02    1.0000000       0.25613679E-01
  2227.4900        1.3017600        1.2778015       0.21666799        1.2671164      -0.25500000E-03  -0.62250000E-03    1.0000000       0.22584156E-01
  2228.4900        1.3033200        1.2786355       0.21800679        1.2683173      -0.70000000E-04  -0.20975000E-02    1.0000000       0.23268550E-01
  2229.4900        1.3016200        1.2791324       0.21934559        1.2695183      -0.44500000E-02  -0.21975000E-02    1.0000000       0.21197635E-01
  2230.4900        1.2944200        1.2792652       0.22068440        1.2707193      -0.44650000E-02   0.13525000E-02    1.0000000       0.14285449E-01
  2231.4900        1.2926900        1.2790068       0.22202320        1.2719202      -0.17450000E-02   0.13250000E-02    1.0000000       0.12898265E-01
  2232.4900        1.2909300        1.2783301       0.22336201        1.2731212      -0.18150000E-02  -0.35125000E-02    1.0000000       0.11877124E-01
  2233.4900        1.2890600        1.2772080       0.22470081        1.2743222      -0.87700000E-02  -0.24400000E-02    1.0000000       0.11172159E-01
  2234.4900        1.2733900        1.2756133       0.22603962        1.2755232      -0.66950000E-02   0.52350000E-02    1.0000000      -0.20957882E-02
  2235.4900        1.2756700        1.2735191       0.22737842        1.2767241       0.17000000E-02   0.37825000E-02    1.0000000       0.20275579E-02
  2236.4900        1.2767900        1.2708981       0.22871723        1.2779251       0.87000000E-03  -0.14275000E-02    1.0000000       0.55539448E-02
  2237.4900        1.2774100        1.2677233       0.23005603        1.2791261      -0.11550000E-02  -0.19000000E-02    1.0000000       0.91310574E-02
  2238.4900        1.2744800        1.2744800       0.23139484        1.2803270      -0.29300000E-02  -0.17750000E-02    1.0000000        0.0000000
